LabVIEW Measurement	
Writer_Version	2
Reader_Version	2
Separator	Tab
Decimal_Separator	.
Multi_Headings	No
X_Columns	One
Time_Pref	Absolute
Operator	MOATS
Date	2019/08/12
Time	13:34:08.2473001480102539063
***End_of_Header***	
	
Channels	15															
Samples	1	1	1	1	1	1	1	1	1	1	1	1	1	1	1	
Date	2019/09/05	2019/09/05	2019/09/05	2019/09/05	2019/09/05	2019/09/05	2019/09/05	2019/09/05	2019/09/05	2019/09/05	2019/09/05	2019/09/05	2019/09/05	2019/09/05	2019/09/05	
Time	13:34:08.7464647293090820313	13:34:08.7464647293090820313	13:34:08.7464647293090820313	13:34:08.7464647293090820313	13:34:08.7464647293090820313	13:34:08.7464647293090820313	13:34:08.7464647293090820313	13:34:08.7464647293090820313	13:34:08.7464647293090820313	13:34:08.7464647293090820313	13:34:08.7464647293090820313	13:34:08.7464647293090820313	13:34:08.7464647293090820313	13:34:08.7464647293090820313	13:34:08.7464647293090820313	
X_Dimension	Time	Time	Time	Time	Time	Time	Time	Time	Time	Time	Time	Time	Time	Time	Time	
X0	2.0736004991645813E+6	2.0736004991645813E+6	2.0736004991645813E+6	2.0736004991645813E+6	2.0736004991645813E+6	2.0736004991645813E+6	2.0736004991645813E+6	2.0736004991645813E+6	2.0736004991645813E+6	2.0736004991645813E+6	2.0736004991645813E+6	2.0736004991645813E+6	2.0736004991645813E+6	2.0736004991645813E+6	2.0736004991645813E+6	
Delta_X	1.000000	1.000000	1.000000	1.000000	1.000000	1.000000	1.000000	1.000000	1.000000	1.000000	1.000000	1.000000	1.000000	1.000000	1.000000	
***End_of_Header***																
X_Value	Untitled	Untitled 1	Untitled 2	Untitled 3	Untitled 4	Untitled 5	Untitled 6	Untitled 7	Untitled 8	Untitled 9	Untitled 10	Untitled 11	Untitled 12	Untitled 13	Untitled 14	Comment
2073600.499165	0.043525	7.828690	0.040626	12.104171	0.185799	0.091633	11.742859	0.093271	0.093830	9.686596	3.321920	3.347815	29.500000	7.460000	34.673685
2073606.499507	0.046422	7.828312	0.040605	12.104314	0.185791	0.091632	11.744772	0.093989	0.093822	9.685436	3.316155	3.347390	29.500000	7.460000	34.673685
2073612.499851	0.062544	7.827793	0.040575	12.104364	0.184749	0.091632	11.743731	0.095284	0.093826	9.683899	3.313628	3.346842	29.500000	7.460000	34.673685
2073618.506194	0.045822	7.827397	0.040552	12.103179	0.183486	0.091637	11.745168	0.095142	0.093820	9.681912	3.308653	3.346122	29.500000	7.460000	34.673685
2073624.499537	0.021498	7.828072	0.040590	12.102829	0.185523	0.091639	11.747047	0.095481	0.093811	9.679465	3.303678	3.345255	29.500000	7.460000	34.673685
2073630.499880	0.060846	7.828463	0.040614	12.105263	0.187339	0.091628	11.749090	0.091921	0.093802	9.676965	3.299966	3.344305	29.500000	7.460000	34.673685
2073636.499224	0.047843	7.829003	0.040644	12.105376	0.185862	0.091628	11.751534	0.092079	0.093791	9.674204	3.299729	3.343321	29.500000	7.460000	34.673685
2073642.499567	0.049951	7.829392	0.040665	12.103087	0.185191	0.091638	11.751319	0.092623	0.093792	9.671391	3.297281	3.342329	29.500000	7.460000	34.673685
2073648.499910	0.010666	7.829152	0.040651	12.101859	0.187102	0.091643	11.751693	0.094313	0.093791	9.668112	3.288673	3.341157	29.500000	7.460000	34.673685
2073654.499253	0.014937	7.829015	0.040643	12.102245	0.185207	0.091641	11.752600	0.094108	0.093787	9.664371	3.277222	3.339798	29.500000	7.460000	34.673685
2073660.499596	0.016390	7.828612	0.040622	12.105115	0.186826	0.091629	11.751479	0.094384	0.093792	9.660412	3.269957	3.338306	29.500000	7.460000	34.673685
2073666.499939	0.061422	7.829157	0.040652	12.103115	0.187307	0.091638	11.754169	0.094052	0.093780	9.655734	3.258506	3.336662	29.500000	7.460000	34.673685
2073672.499283	0.031201	7.829414	0.040668	12.106522	0.185515	0.091623	11.753827	0.094700	0.093781	9.650934	3.250925	3.334853	29.500000	7.460000	34.673685
2073678.499626	0.027214	7.829691	0.040688	12.113954	0.186439	0.091590	11.750945	0.092315	0.093794	9.645633	3.243264	3.332881	29.500000	7.460000	34.673685
2073684.514970	0.037106	7.829943	0.040702	12.113942	0.187268	0.091590	11.752408	0.094060	0.093787	9.639695	3.231103	3.330694	29.500000	7.460000	34.673685
2073690.499312	0.064699	7.830027	0.040709	12.118502	0.184970	0.091571	11.753224	0.094415	0.093784	9.633404	3.219968	3.328361	29.500000	7.460000	34.673685
2073696.499655	0.055872	7.829671	0.040690	12.120368	0.186762	0.091563	11.752560	0.094100	0.093787	9.626383	3.210570	3.325840	29.500000	7.460000	34.673685
2073702.499999	0.054356	7.830000	0.040710	12.121905	0.184252	0.091556	11.754494	0.093879	0.093778	9.618715	3.197066	3.323047	29.500000	7.460000	34.673685
2073708.499341	0.063846	7.829997	0.040710	12.123238	0.185034	0.091550	11.754615	0.092150	0.093778	9.610335	3.187037	3.319998	29.500000	7.460000	34.673685
2073714.499685	0.055430	7.829748	0.040695	12.121134	0.185626	0.091559	11.755793	0.091621	0.093772	9.601672	3.183167	3.316887	29.500000	7.460000	34.673685
2073720.500028	0.038235	7.829411	0.040674	12.117440	0.185349	0.091575	11.756746	0.095442	0.093768	9.592547	3.183246	3.313627	29.500000	7.460000	34.673685
2073726.499371	0.010563	7.829300	0.040667	12.115787	0.186494	0.091582	11.754722	0.094218	0.093777	9.583500	3.179456	3.310371	29.500000	7.460000	34.673685
2073732.503715	0.024529	7.829521	0.040677	12.112184	0.185444	0.091598	11.753678	0.092600	0.093782	9.574104	3.177007	3.306953	29.500000	7.460000	34.673685
2073738.502058	0.069057	7.829842	0.040694	12.110258	0.184962	0.091607	11.754682	0.092686	0.093777	9.564654	3.175665	3.303554	29.500000	7.460000	34.673685
2073744.499401	0.054009	7.829378	0.040665	12.104614	0.187086	0.091631	11.754993	0.093168	0.093776	9.555053	3.168321	3.300141	29.500000	7.460000	34.673685
2073750.499744	0.030356	7.829483	0.040671	12.104639	0.186012	0.091631	11.754209	0.091897	0.093779	9.544765	3.159476	3.296479	29.500000	7.460000	34.673685
2073756.500087	0.037777	7.828973	0.040639	12.099463	0.187347	0.091653	11.755010	0.092529	0.093776	9.533886	3.151026	3.292532	29.500000	7.460000	34.673685
2073762.499430	0.029953	7.829154	0.040649	12.097639	0.185026	0.091661	11.754287	0.093792	0.093779	9.522863	3.143129	3.288561	29.500000	7.460000	34.673685
2073768.499774	0.048167	7.829039	0.040640	12.094847	0.185989	0.091674	11.754932	0.095244	0.093776	9.511104	3.131994	3.284335	29.500000	7.460000	34.673685
2073774.500117	0.039198	7.828925	0.040634	12.094926	0.185657	0.091673	11.754287	0.093334	0.093779	9.499150	3.119437	3.280080	29.500000	7.460000	34.673685
2073780.499460	0.070612	7.828753	0.040623	12.093142	0.186439	0.091681	11.752704	0.094155	0.093786	9.487588	3.099300	3.275832	29.500000	7.460000	34.673685
2073786.506804	0.049777	7.828922	0.040632	12.091380	0.185539	0.091689	11.748729	0.095639	0.093804	9.473944	3.080504	3.270997	29.500000	7.460000	34.673685
2073792.499146	0.068054	7.829071	0.040638	12.086374	0.185389	0.091711	11.744275	0.094392	0.093824	9.459082	3.067000	3.265581	29.500000	7.460000	34.673685
2073798.499489	0.030577	7.829078	0.040636	12.082863	0.185562	0.091726	11.739699	0.094550	0.093844	9.443254	3.054286	3.259888	29.500000	7.460000	34.673685
2073804.499833	0.067770	7.829231	0.040642	12.077494	0.186660	0.091749	11.738559	0.094155	0.093849	9.427401	3.049627	3.254209	29.500000	7.460000	34.673685
2073810.499176	0.028130	7.829131	0.040635	12.075749	0.184615	0.091757	11.736435	0.094834	0.093859	9.410888	3.048442	3.248353	29.500000	7.460000	34.673685
2073816.499519	0.019808	7.828600	0.040604	12.073381	0.186352	0.091767	11.731713	0.094455	0.093880	9.394512	3.038649	3.242453	29.500000	7.460000	34.673685
2073822.499862	0.023677	7.829265	0.040642	12.073699	0.184481	0.091766	11.726781	0.094352	0.093902	9.377782	3.028778	3.236286	29.500000	7.460000	34.673685
2073828.499205	0.010926	7.829568	0.040656	12.068577	0.186431	0.091788	11.723191	0.094676	0.093918	9.360655	3.023803	3.230254	29.500000	7.460000	34.673685
2073834.499548	0.037359	7.829852	0.040668	12.062412	0.186155	0.091815	11.719956	0.093050	0.093933	9.343439	3.021276	3.224093	29.500000	7.460000	34.673685
2073840.499892	0.058296	7.830066	0.040678	12.057971	0.186628	0.091834	11.715439	0.094558	0.093953	9.326018	3.015274	3.217838	29.500000	7.460000	34.673685
2073846.500235	0.040240	7.830091	0.040678	12.054775	0.186534	0.091848	11.710544	0.095647	0.093975	9.308616	3.007535	3.211464	29.500000	7.460000	34.673685
2073852.499578	0.070565	7.830236	0.040683	12.048417	0.184505	0.091876	11.707239	0.094510	0.093990	9.290219	3.006271	3.204991	29.500000	7.460000	34.673685
2073858.499921	0.049556	7.830296	0.040685	12.046955	0.185760	0.091882	11.700803	0.092750	0.094018	9.272555	3.008719	3.198614	29.500000	7.460000	34.673685
2073864.499264	0.048467	7.830598	0.040702	12.045935	0.186755	0.091887	11.692521	0.093642	0.094056	9.254906	3.011167	3.192237	29.500000	7.460000	34.673685
2073870.499608	0.019437	7.830791	0.040712	12.044849	0.186012	0.091892	11.684217	0.095513	0.094093	9.236840	3.016301	3.185711	29.500000	7.460000	34.673685
2073876.499951	0.069546	7.831419	0.040748	12.045913	0.184094	0.091887	11.676921	0.093855	0.094125	9.220108	3.016222	3.179642	29.500000	7.460000	34.673685
2073882.499294	0.012348	7.831250	0.040739	12.047068	0.186360	0.091882	11.670828	0.094834	0.094153	9.202609	3.014879	3.173187	29.500000	7.460000	34.673685
2073888.499637	0.044717	7.831706	0.040767	12.050699	0.186494	0.091866	11.662848	0.094850	0.094189	9.185466	3.013616	3.166941	29.500000	7.460000	34.673685
2073894.499980	0.067478	7.831848	0.040776	12.052400	0.186968	0.091859	11.655131	0.092907	0.094223	9.167909	3.007930	3.160674	29.500000	7.460000	34.673685
2073900.499323	0.072183	7.832359	0.040805	12.052202	0.186091	0.091860	11.648994	0.094273	0.094251	9.150689	3.001296	3.154334	29.500000	7.460000	34.673685
2073906.499667	0.063909	7.832740	0.040826	12.050565	0.184489	0.091867	11.644526	0.092663	0.094271	9.133021	2.997505	3.148068	29.500000	7.460000	34.673685
2073912.500010	0.015458	7.832663	0.040822	12.052547	0.185839	0.091858	11.638226	0.093650	0.094299	9.115497	2.993873	3.141702	29.500000	7.460000	34.673685
2073918.499353	0.010603	7.832672	0.040826	12.058519	0.185973	0.091832	11.633199	0.093934	0.094322	9.098588	2.993873	3.135513	29.500000	7.460000	34.673685
2073924.499696	0.055343	7.833206	0.040857	12.059867	0.185578	0.091826	11.628898	0.095718	0.094341	9.081630	2.991977	3.129359	29.500000	7.460000	34.673685
2073930.500040	0.033088	7.833391	0.040869	12.063759	0.186407	0.091809	11.623191	0.093484	0.094367	9.064690	2.991425	3.123077	29.500000	7.460000	34.673685
2073936.499382	0.011219	7.833690	0.040887	12.064023	0.185855	0.091808	11.619769	0.092963	0.094382	9.047789	2.987792	3.117063	29.500000	7.460000	34.673685
2073942.499726	0.065686	7.833510	0.040879	12.067856	0.186368	0.091791	11.616581	0.093665	0.094397	9.031477	2.977684	3.111115	29.500000	7.460000	34.673685
2073948.514070	0.038496	7.834030	0.040909	12.070813	0.186660	0.091778	11.613388	0.094486	0.094411	9.014354	2.965127	3.104883	29.500000	7.460000	34.673685
2073954.499412	0.019548	7.834060	0.040914	12.076233	0.186597	0.091755	11.611796	0.092750	0.094418	8.996277	2.949017	3.098278	29.500000	7.460000	34.673685
2073960.499755	0.072104	7.834806	0.040958	12.079708	0.185318	0.091740	11.609200	0.095836	0.094430	8.978113	2.931248	3.091664	29.500000	7.460000	34.673685
2073966.500098	0.015174	7.835510	0.041001	12.084446	0.186281	0.091719	11.603369	0.095813	0.094456	8.959200	2.913796	3.084763	29.500000	7.460000	34.673685
2073972.499442	0.015711	7.835811	0.041018	12.085880	0.186636	0.091713	11.601643	0.094723	0.094464	8.939519	2.894921	3.077623	29.500000	7.460000	34.673685
2073978.499785	0.058849	7.835892	0.041024	12.086972	0.186360	0.091708	11.599817	0.095110	0.094472	8.920730	2.879206	3.070683	29.500000	7.460000	34.673685
2073984.500128	0.016666	7.835588	0.041007	12.086736	0.184876	0.091709	11.597959	0.094684	0.094481	8.902517	2.857805	3.064220	29.500000	7.460000	34.673685
2073990.499471	0.039246	7.835259	0.040989	12.087964	0.184986	0.091704	11.596851	0.094494	0.094486	8.882407	2.830402	3.056789	29.500000	7.460000	34.673685
2073996.499815	0.026408	7.835709	0.041016	12.091142	0.186107	0.091690	11.596407	0.094305	0.094488	8.861432	2.805605	3.049155	29.500000	7.460000	34.673685
2074002.500157	0.057325	7.836245	0.041047	12.092949	0.185855	0.091682	11.596557	0.093563	0.094487	8.838417	2.780334	3.040799	29.500000	7.460000	34.673685
2074008.499501	0.059251	7.837303	0.041110	12.097216	0.187986	0.091663	11.597236	0.094021	0.094484	8.814453	2.761539	3.032225	29.500000	7.460000	34.673685
2074014.499844	0.015142	7.837456	0.041121	12.101813	0.185894	0.091643	11.595956	0.094218	0.094490	8.791308	2.740058	3.023640	29.500000	7.460000	34.673685
2074020.499187	0.072965	7.838080	0.041156	12.100980	0.187197	0.091647	11.598084	0.094202	0.094480	8.766820	2.723159	3.014941	29.500000	7.460000	34.673685
2074026.499530	0.045467	7.837548	0.041128	12.105368	0.184141	0.091628	11.598587	0.093460	0.094478	8.742104	2.707048	3.005944	29.500000	7.460000	34.673685
2074032.499874	0.012411	7.837217	0.041110	12.106324	0.185965	0.091624	11.600245	0.095410	0.094470	8.717437	2.684778	2.997005	29.500000	7.460000	34.673685
2074038.499217	0.015229	7.837013	0.041098	12.106821	0.186131	0.091621	11.602031	0.094471	0.094462	8.691136	2.659981	2.987306	29.500000	7.460000	34.673685
2074044.499560	0.053709	7.836751	0.041085	12.109122	0.186305	0.091611	11.601705	0.094581	0.094464	8.667582	2.633210	2.978746	29.500000	7.460000	34.673685
2074050.501903	0.060838	7.837016	0.041100	12.110021	0.185957	0.091608	11.602032	0.094218	0.094462	8.638388	2.608097	2.968351	29.500000	7.460000	34.673685
2074056.499246	0.072499	7.837857	0.041149	12.112351	0.185736	0.091597	11.601168	0.094471	0.094466	8.609189	2.588196	2.957755	29.500000	7.460000	34.673685
2074062.499589	0.015395	7.838300	0.041175	12.113976	0.184710	0.091590	11.601118	0.095221	0.094466	8.578657	2.573350	2.946685	29.500000	7.460000	34.673685
2074068.499933	0.024987	7.838707	0.041200	12.116959	0.186984	0.091577	11.601270	0.092742	0.094466	8.548001	2.561583	2.935555	29.500000	7.460000	34.673685
2074074.499276	0.048127	7.838863	0.041209	12.118155	0.185878	0.091572	11.600666	0.094076	0.094468	8.517754	2.554318	2.924593	29.500000	7.460000	34.673685
2074080.499619	0.011740	7.839277	0.041232	12.117296	0.183849	0.091576	11.601739	0.095039	0.094464	8.487430	2.545473	2.913627	29.500000	7.460000	34.673685
2074086.499962	0.040627	7.839599	0.041251	12.118153	0.185405	0.091572	11.601115	0.094234	0.094466	8.458088	2.530705	2.902997	29.500000	7.460000	34.673685
2074092.499305	0.023795	7.839595	0.041251	12.118214	0.186360	0.091572	11.602579	0.093894	0.094460	8.431014	2.501802	2.892989	29.500000	7.460000	34.673685
2074098.504649	0.018000	7.840038	0.041276	12.118905	0.187299	0.091569	11.602336	0.095584	0.094461	8.399125	2.466422	2.881646	29.500000	7.460000	34.673685
2074104.499991	0.035543	7.839893	0.041268	12.117985	0.186036	0.091573	11.603760	0.094108	0.094454	8.366742	2.428832	2.869936	29.500000	7.460000	34.673685
2074110.499335	0.030727	7.840284	0.041290	12.119419	0.185870	0.091567	11.605133	0.094313	0.094448	8.334879	2.399376	2.858386	29.500000	7.460000	34.673685
2074116.499678	0.049848	7.840627	0.041309	12.118349	0.186399	0.091571	11.606401	0.094108	0.094443	8.303593	2.381686	2.847075	29.500000	7.460000	34.673685
2074122.501021	0.045356	7.840849	0.041323	12.120384	0.185697	0.091562	11.607992	0.094281	0.094435	8.269766	2.372131	2.834807	29.500000	7.460000	34.673685
2074128.499364	0.052114	7.841133	0.041338	12.118757	0.185957	0.091570	11.609917	0.095197	0.094427	8.236976	2.363207	2.822958	29.500000	7.460000	34.673685
2074134.499708	0.060507	7.841253	0.041347	12.121539	0.184276	0.091557	11.612718	0.093539	0.094414	8.204017	2.354125	2.810996	29.500000	7.460000	34.673685
2074140.501051	0.066744	7.841665	0.041370	12.120905	0.187173	0.091560	11.618054	0.092868	0.094390	8.171351	2.342832	2.799180	29.500000	7.460000	34.673685
2074146.499394	0.021308	7.841657	0.041368	12.119265	0.185318	0.091567	11.626022	0.093784	0.094354	8.137958	2.335883	2.786880	29.500000	7.460000	34.673685
2074152.499737	0.014377	7.841575	0.041363	12.118205	0.183723	0.091572	11.631477	0.092505	0.094330	8.102016	2.325300	2.773882	29.500000	7.460000	34.673685
2074158.504080	0.038046	7.841674	0.041367	12.115480	0.187797	0.091584	11.639746	0.093097	0.094292	8.067021	2.315271	2.761480	29.500000	7.460000	34.673685
2074164.500423	0.072081	7.841645	0.041365	12.115628	0.183376	0.091583	11.641104	0.094952	0.094286	8.034200	2.296397	2.749598	29.500000	7.460000	34.673685
2074170.499767	0.017432	7.841839	0.041377	12.116797	0.185926	0.091578	11.643381	0.093989	0.094276	8.001315	2.272390	2.737682	29.500000	7.460000	34.673685
2074176.500110	0.012663	7.842642	0.041420	12.113139	0.183415	0.091594	11.645566	0.095181	0.094266	7.965427	2.249172	2.724734	29.500000	7.460000	34.673685
2074182.499453	0.042790	7.843396	0.041464	12.113844	0.186399	0.091591	11.646369	0.093429	0.094263	7.929380	2.228403	2.711679	29.500000	7.460000	34.673685
2074188.499796	0.042001	7.843588	0.041474	12.114039	0.185989	0.091590	11.649241	0.094723	0.094250	7.896696	2.210871	2.699846	29.500000	7.460000	34.673685
2074194.499139	0.013800	7.843944	0.041494	12.113574	0.184118	0.091592	11.653993	0.094052	0.094228	7.859436	2.191128	2.686092	29.500000	7.460000	34.673685
2074200.499483	0.069831	7.844240	0.041510	12.111026	0.185981	0.091603	11.659443	0.094068	0.094204	7.820195	2.169885	2.671909	29.500000	7.460000	34.673685
2074206.500826	0.039601	7.844682	0.041534	12.110410	0.184426	0.091606	11.661571	0.092639	0.094194	7.783122	2.151089	2.658780	29.500000	7.460000	34.673685
2074212.504169	0.068007	7.846110	0.041615	12.109744	0.185105	0.091609	11.667083	0.093768	0.094170	7.742868	2.132136	2.643923	29.500000	7.460000	34.673685
2074218.499512	0.055478	7.847209	0.041676	12.108318	0.182823	0.091615	11.674097	0.093192	0.094138	7.701833	2.118395	2.629381	29.500000	7.460000	34.673685
2074224.499855	0.055809	7.847985	0.041718	12.105130	0.184023	0.091629	11.681235	0.093436	0.094106	7.659420	2.107102	2.613765	29.500000	7.460000	34.673685
2074230.499198	0.022690	7.847741	0.041705	12.106043	0.185444	0.091625	11.686694	0.093357	0.094082	7.615977	2.096046	2.598331	29.500000	7.460000	34.673685
2074236.499542	0.058296	7.848258	0.041731	12.101009	0.185373	0.091647	11.695228	0.093800	0.094043	7.573027	2.087754	2.582843	29.500000	7.460000	34.673685
2074242.499885	0.070367	7.849435	0.041797	12.099293	0.184970	0.091654	11.701285	0.093768	0.094016	7.529102	2.079225	2.566964	29.500000	7.460000	34.673685
2074248.499228	0.049106	7.849583	0.041806	12.099816	0.183715	0.091652	11.706280	0.093760	0.093994	7.487565	2.071723	2.551923	29.500000	7.460000	34.673685
2074254.499571	0.029661	7.849523	0.041803	12.101076	0.185389	0.091646	11.709754	0.093468	0.093978	7.444230	2.069196	2.536223	29.500000	7.460000	34.673685
2074260.499914	0.069128	7.850383	0.041850	12.098169	0.185444	0.091659	11.713942	0.094565	0.093960	7.402482	2.069275	2.521146	29.500000	7.460000	34.673685
2074266.499258	0.051285	7.850197	0.041837	12.093900	0.185334	0.091678	11.718279	0.094084	0.093940	7.358951	2.065484	2.505439	29.500000	7.460000	34.673685
2074272.499601	0.022414	7.850506	0.041854	12.092324	0.184749	0.091685	11.723409	0.093650	0.093917	7.315291	2.060430	2.489654	29.500000	7.460000	34.673685
2074278.499944	0.021498	7.850318	0.041843	12.091137	0.185823	0.091690	11.729934	0.092552	0.093888	7.273285	2.054192	2.474464	29.500000	7.460000	34.673685
2074284.499287	0.028319	7.851426	0.041905	12.090594	0.184812	0.091692	11.732818	0.093089	0.093875	7.233028	2.048032	2.459589	29.500000	7.460000	34.673685
2074290.499630	0.059678	7.851746	0.041922	12.087928	0.185697	0.091704	11.739061	0.093279	0.093847	7.190384	2.045821	2.444494	29.500000	7.460000	34.673685
2074296.499973	0.023464	7.852189	0.041947	12.088562	0.184441	0.091701	11.740756	0.092860	0.093840	7.149187	2.045505	2.429274	29.500000	7.460000	34.673685
2074302.499317	0.014092	7.851769	0.041923	12.087321	0.184615	0.091706	11.745559	0.092473	0.093818	7.112734	2.045505	2.416396	29.500000	7.460000	34.673685
2074308.501660	0.071702	7.852151	0.041945	12.087426	0.186005	0.091706	11.751062	0.094408	0.093793	7.070447	2.047163	2.401088	29.500000	7.460000	34.673685
2074314.500003	0.025161	7.852622	0.041971	12.086845	0.185089	0.091708	11.754404	0.093989	0.093779	7.031317	2.047005	2.386932	29.500000	7.460000	34.673685
2074320.499346	0.034138	7.852131	0.041942	12.085515	0.184583	0.091714	11.757666	0.095000	0.093764	6.993615	2.046768	2.373019	29.500000	7.460000	34.673685
2074326.502689	0.022729	7.852460	0.041963	12.090746	0.183526	0.091691	11.757387	0.094297	0.093765	6.952924	2.045505	2.358236	29.500000	7.460000	34.673685
2074332.500032	0.072617	7.852456	0.041966	12.094988	0.185405	0.091673	11.757034	0.093065	0.093767	6.912502	2.048742	2.343833	29.500000	7.460000	34.673685
2074338.508376	0.072546	7.852545	0.041974	12.099324	0.186557	0.091654	11.756686	0.093555	0.093768	6.875562	2.048032	2.330412	29.500000	7.460000	34.673685
2074344.499719	0.058170	7.853073	0.042003	12.098892	0.185910	0.091656	11.762238	0.092876	0.093744	6.840254	2.044320	2.317637	29.500000	7.460000	34.673685
2074350.500062	0.038938	7.853832	0.042045	12.097797	0.185136	0.091661	11.766705	0.093973	0.093724	6.802385	2.039266	2.303943	29.500000	7.460000	34.673685
2074356.499405	0.038575	7.853412	0.042021	12.096979	0.185570	0.091664	11.769813	0.093405	0.093710	6.767241	2.033027	2.290990	29.500000	7.460000	34.673685
2074362.499748	0.017234	7.854641	0.042089	12.093511	0.185768	0.091679	11.774688	0.093950	0.093688	6.731932	2.026867	2.278254	29.500000	7.460000	34.673685
2074368.500092	0.060625	7.854564	0.042084	12.093306	0.185815	0.091680	11.775592	0.093563	0.093684	6.697391	2.024261	2.265759	29.500000	7.460000	34.673685
2074374.499435	0.068409	7.855894	0.042159	12.092821	0.185957	0.091682	11.776856	0.093223	0.093678	6.662207	2.022919	2.253262	29.500000	7.460000	34.673685
2074380.499778	0.024814	7.856623	0.042202	12.095572	0.185223	0.091670	11.779136	0.093689	0.093668	6.629801	2.019602	2.241278	29.500000	7.460000	34.673685
2074386.500121	0.073754	7.857821	0.042269	12.093844	0.187694	0.091678	11.782259	0.093752	0.093654	6.596296	2.014548	2.229394	29.500000	7.460000	34.673685
2074392.499464	0.015790	7.858779	0.042322	12.091278	0.184568	0.091689	11.782264	0.093800	0.093654	6.563747	2.006098	2.217432	29.500000	7.460000	34.673685
2074398.499807	0.016737	7.859287	0.042352	12.093543	0.184828	0.091679	11.780566	0.092086	0.093662	6.532836	1.995595	2.206223	29.500000	7.460000	34.673685
2074404.499151	0.062094	7.859295	0.042351	12.092858	0.182712	0.091682	11.781193	0.094360	0.093659	6.503030	1.985644	2.195446	29.500000	7.460000	34.673685
2074410.499494	0.069917	7.859992	0.042392	12.095043	0.185562	0.091673	11.780301	0.092994	0.093663	6.475373	1.976800	2.185612	29.500000	7.460000	34.673685
2074416.499837	0.067123	7.860481	0.042422	12.098034	0.185318	0.091660	11.780405	0.093421	0.093662	6.446300	1.969455	2.174856	29.500000	7.460000	34.673685
2074422.499180	0.072120	7.860769	0.042437	12.096769	0.185128	0.091665	11.781247	0.095110	0.093659	6.417874	1.965665	2.164583	29.500000	7.460000	34.673685
2074428.499523	0.070857	7.861303	0.042466	12.094576	0.183581	0.091675	11.781377	0.093081	0.093658	6.387454	1.964401	2.153599	29.500000	7.460000	34.673685
2074434.499866	0.014298	7.861869	0.042498	12.093685	0.186391	0.091679	11.781703	0.093926	0.093657	6.360107	1.960610	2.143906	29.500000	7.460000	34.673685
2074440.505210	0.051743	7.862884	0.042557	12.096880	0.186265	0.091665	11.782088	0.093397	0.093655	6.330915	1.958162	2.133304	29.500000	7.460000	34.673685
2074446.499553	0.070675	7.863535	0.042595	12.099084	0.185310	0.091655	11.780795	0.093713	0.093661	6.303604	1.952318	2.123217	29.500000	7.460000	34.673685
2074452.499896	0.021877	7.864084	0.042626	12.098744	0.185460	0.091657	11.780845	0.093823	0.093660	6.278270	1.944184	2.114227	29.500000	7.460000	34.673685
2074458.499239	0.071741	7.864580	0.042654	12.097552	0.185049	0.091662	11.781378	0.093263	0.093658	6.254696	1.934550	2.105551	29.500000	7.460000	34.673685
2074464.499582	0.070794	7.865568	0.042711	12.101095	0.183928	0.091646	11.779445	0.093547	0.093667	6.230444	1.924757	2.096889	29.500000	7.460000	34.673685
2074470.499926	0.066444	7.866578	0.042767	12.099070	0.184220	0.091655	11.782162	0.093705	0.093655	6.207641	1.914886	2.088659	29.500000	7.460000	34.673685
2074476.499269	0.035835	7.866716	0.042776	12.099897	0.185791	0.091652	11.780701	0.094929	0.093661	6.185666	1.903830	2.080542	29.500000	7.460000	34.673685
2074482.499612	0.034524	7.867357	0.042814	12.102611	0.185523	0.091640	11.777195	0.092450	0.093677	6.161989	1.893722	2.072094	29.500000	7.460000	34.673685
2074488.500955	0.073423	7.867746	0.042836	12.102353	0.187260	0.091641	11.775358	0.093642	0.093685	6.138609	1.881244	2.063481	29.500000	7.460000	34.673685
2074494.499299	0.047733	7.868510	0.042878	12.100293	0.185705	0.091650	11.773616	0.093468	0.093693	6.115560	1.871452	2.055316	29.500000	7.460000	34.673685
2074500.499641	0.019603	7.868934	0.042901	12.098878	0.185831	0.091656	11.772406	0.094968	0.093698	6.091183	1.861264	2.046509	29.500000	7.460000	34.673685
2074506.499985	0.031627	7.869786	0.042947	12.095002	0.185373	0.091673	11.771308	0.093176	0.093703	6.067541	1.850445	2.037996	29.500000	7.460000	34.673685
2074512.499328	0.069365	7.870534	0.042990	12.096381	0.186636	0.091667	11.766136	0.095631	0.093726	6.044000	1.841206	2.029459	29.500000	7.460000	34.673685
2074518.499671	0.070044	7.870056	0.042964	12.098586	0.186099	0.091657	11.763922	0.093934	0.093736	6.021354	1.831255	2.021093	29.500000	7.460000	34.673685
2074524.500014	0.072799	7.871128	0.043025	12.098962	0.185341	0.091656	11.762278	0.092197	0.093743	5.999488	1.822726	2.013318	29.500000	7.460000	34.673685
2074530.499357	0.025129	7.871372	0.043041	12.102357	0.185484	0.091641	11.760995	0.093981	0.093749	5.978043	1.814197	2.005383	29.500000	7.460000	34.673685
2074536.499701	0.066144	7.872052	0.043079	12.102328	0.185799	0.091641	11.762168	0.093168	0.093744	5.957192	1.805116	1.997971	29.500000	7.460000	34.673685
2074542.500044	0.070233	7.872946	0.043131	12.105241	0.187378	0.091628	11.760317	0.093302	0.093752	5.938324	1.800219	1.990984	29.500000	7.460000	34.673685
2074548.499387	0.015411	7.872954	0.043130	12.102447	0.183162	0.091640	11.759847	0.093942	0.093754	5.920027	1.793191	1.984517	29.500000	7.460000	34.673685
2074554.499730	0.062480	7.873919	0.043188	12.107157	0.187157	0.091620	11.755665	0.093657	0.093773	5.902023	1.786162	1.977832	29.500000	7.460000	34.673685
2074560.500073	0.015340	7.873667	0.043174	12.108886	0.184836	0.091612	11.755665	0.093610	0.093773	5.884342	1.782530	1.971416	29.500000	7.460000	34.673685
2074566.499416	0.014795	7.873756	0.043178	12.107551	0.185247	0.091618	11.758343	0.093444	0.093761	5.867318	1.776528	1.965272	29.500000	7.460000	34.673685
2074572.499760	0.055359	7.874269	0.043207	12.107267	0.187599	0.091620	11.757784	0.093089	0.093763	5.851443	1.766972	1.959638	29.500000	7.460000	34.673685
2074578.500103	0.074354	7.874874	0.043241	12.105780	0.186502	0.091626	11.758378	0.094597	0.093761	5.836353	1.755995	1.954083	29.500000	7.460000	34.673685
2074584.499446	0.065180	7.875563	0.043281	12.106780	0.184236	0.091622	11.757521	0.092102	0.093765	5.819148	1.745966	1.947954	29.500000	7.460000	34.673685
2074590.499789	0.013879	7.876356	0.043326	12.108312	0.184962	0.091615	11.759986	0.092039	0.093754	5.802110	1.733410	1.941770	29.500000	7.460000	34.673685
2074596.499132	0.037990	7.876874	0.043356	12.108636	0.185555	0.091614	11.762984	0.093089	0.093740	5.784435	1.718563	1.935251	29.500000	7.460000	34.673685
2074602.499475	0.074907	7.877033	0.043363	12.106640	0.185681	0.091622	11.767371	0.092797	0.093721	5.765587	1.702216	1.928569	29.500000	7.460000	34.673685
2074608.499819	0.070731	7.877650	0.043398	12.105925	0.185476	0.091625	11.768939	0.093436	0.093714	5.746908	1.688633	1.921816	29.500000	7.460000	34.673685
2074614.499162	0.046825	7.878183	0.043430	12.109389	0.184070	0.091610	11.768082	0.092363	0.093717	5.727585	1.673865	1.914783	29.500000	7.460000	34.673685
2074620.499505	0.075278	7.879133	0.043485	12.111801	0.183423	0.091600	11.768538	0.093626	0.093715	5.707877	1.661309	1.907622	29.500000	7.460000	34.673685
2074626.499848	0.051459	7.880658	0.043572	12.113239	0.184749	0.091594	11.768556	0.093886	0.093715	5.686710	1.651437	1.899812	29.500000	7.460000	34.673685
2074632.499191	0.020811	7.881410	0.043615	12.114108	0.185436	0.091590	11.770378	0.093760	0.093707	5.664725	1.643777	1.891976	29.500000	7.460000	34.673685
2074638.499535	0.022564	7.881625	0.043628	12.114951	0.184157	0.091586	11.773618	0.093357	0.093693	5.642754	1.637617	1.884014	29.500000	7.460000	34.673685
2074644.499878	0.016042	7.882216	0.043665	12.120186	0.184962	0.091563	11.777720	0.092821	0.093674	5.621385	1.635011	1.876219	29.500000	7.460000	34.673685
2074650.499221	0.043738	7.883743	0.043752	12.122984	0.183123	0.091551	11.780381	0.094984	0.093663	5.599134	1.637064	1.867997	29.500000	7.460000	34.673685
2074656.499564	0.072554	7.884410	0.043793	12.127020	0.183376	0.091534	11.787179	0.094936	0.093632	5.577040	1.637617	1.860090	29.500000	7.460000	34.673685
2074662.499907	0.071567	7.885985	0.043884	12.130155	0.184568	0.091520	11.792229	0.093263	0.093610	5.554488	1.637617	1.851754	29.500000	7.460000	34.673685
2074668.499250	0.017748	7.886608	0.043923	12.137063	0.183944	0.091490	11.796877	0.092465	0.093589	5.532286	1.631299	1.843638	29.500000	7.460000	34.673685
2074674.499594	0.014305	7.887402	0.043970	12.141104	0.185752	0.091472	11.804984	0.093302	0.093553	5.509295	1.617795	1.835266	29.500000	7.460000	34.673685
2074680.499937	0.040075	7.887582	0.043980	12.140586	0.185057	0.091475	11.812845	0.093507	0.093518	5.486586	1.605950	1.827052	29.500000	7.460000	34.673685
2074686.499280	0.017977	7.887930	0.043999	12.139293	0.184923	0.091480	11.821310	0.092884	0.093480	5.463989	1.594736	1.818885	29.500000	7.460000	34.673685
2074692.499623	0.040280	7.889491	0.044089	12.142178	0.184726	0.091468	11.825648	0.093650	0.093461	5.440519	1.587865	1.810356	29.500000	7.460000	34.673685
2074698.499967	0.074646	7.891083	0.044179	12.142881	0.183676	0.091465	11.832793	0.093215	0.093429	5.416369	1.582179	1.801752	29.500000	7.460000	34.673685
2074704.499310	0.014187	7.891647	0.044211	12.143341	0.184015	0.091463	11.839833	0.093255	0.093398	5.392866	1.578389	1.793093	29.500000	7.460000	34.673685
2074710.499653	0.060151	7.891942	0.044228	12.143143	0.185318	0.091464	11.848814	0.092592	0.093358	5.369808	1.574440	1.784750	29.500000	7.460000	34.673685
2074716.499996	0.072302	7.892378	0.044252	12.142919	0.184394	0.091464	11.856090	0.092757	0.093325	5.345715	1.567096	1.776033	29.500000	7.460000	34.673685
2074722.499339	0.074149	7.892332	0.044253	12.148619	0.183881	0.091440	11.859433	0.094281	0.093311	5.322396	1.560778	1.767529	29.500000	7.460000	34.673685
2074728.499682	0.052146	7.893470	0.044318	12.150292	0.183833	0.091432	11.865324	0.094147	0.093284	5.298845	1.554697	1.759129	29.500000	7.460000	34.673685
2074734.500026	0.058414	7.893764	0.044336	12.151641	0.184568	0.091427	11.871885	0.092102	0.093255	5.275890	1.548300	1.750664	29.500000	7.460000	34.673685
2074740.499369	0.074725	7.895299	0.044424	12.153785	0.183936	0.091417	11.876231	0.093389	0.093236	5.252598	1.543325	1.742350	29.500000	7.460000	34.673685
2074746.499712	0.026693	7.895230	0.044421	12.156007	0.184481	0.091408	11.882084	0.092465	0.093210	5.229625	1.538429	1.733867	29.500000	7.460000	34.673685
2074752.500055	0.058943	7.895962	0.044464	12.158301	0.184655	0.091398	11.886734	0.092757	0.093189	5.206143	1.533454	1.725483	29.500000	7.460000	34.673685
2074758.499398	0.017637	7.897028	0.044526	12.161287	0.184078	0.091385	11.890297	0.091597	0.093174	5.183034	1.528400	1.717084	29.500000	7.460000	34.673685
2074764.499742	0.064604	7.898398	0.044603	12.160752	0.183376	0.091387	11.897809	0.091352	0.093140	5.159827	1.524767	1.708549	29.500000	7.460000	34.673685
2074770.500085	0.036924	7.898909	0.044633	12.161915	0.184331	0.091382	11.905252	0.091392	0.093107	5.136866	1.519792	1.700226	29.500000	7.460000	34.673685
2074776.499428	0.061130	7.899384	0.044659	12.159961	0.183691	0.091390	11.911940	0.092876	0.093078	5.114075	1.513474	1.692001	29.500000	7.460000	34.673685
2074782.499771	0.021466	7.899361	0.044659	12.162812	0.184599	0.091378	11.917246	0.093389	0.093054	5.091368	1.508420	1.683888	29.500000	7.460000	34.673685
2074788.500114	0.014787	7.898737	0.044625	12.164715	0.184260	0.091370	11.922369	0.093760	0.093031	5.069381	1.504629	1.675774	29.500000	7.460000	34.673685
2074794.499457	0.061407	7.899114	0.044646	12.163318	0.184205	0.091376	11.926410	0.092829	0.093013	5.047385	1.502181	1.667962	29.500000	7.460000	34.673685
2074800.499801	0.019200	7.899618	0.044674	12.162226	0.184173	0.091381	11.931801	0.091226	0.092990	5.026930	1.498391	1.660571	29.500000	7.460000	34.673685
2074806.499144	0.058193	7.900132	0.044701	12.159837	0.184576	0.091391	11.938619	0.092079	0.092959	5.005883	1.495942	1.652981	29.500000	7.460000	34.673685
2074812.499487	0.041448	7.899761	0.044680	12.159444	0.184552	0.091393	11.942761	0.092639	0.092941	4.985989	1.492231	1.645784	29.500000	7.460000	34.673685
2074818.499830	0.038890	7.901386	0.044768	12.152728	0.184481	0.091422	11.951809	0.091210	0.092901	4.966208	1.487177	1.638581	29.500000	7.460000	34.673685
2074824.499173	0.064446	7.902083	0.044806	12.149183	0.183944	0.091437	11.958760	0.093650	0.092870	4.946253	1.484649	1.631520	29.500000	7.460000	34.673685
2074830.499516	0.065741	7.903392	0.044880	12.150168	0.183557	0.091433	11.961480	0.094321	0.092858	4.926806	1.481017	1.624470	29.500000	7.460000	34.673685
2074836.499860	0.045269	7.904285	0.044933	12.153836	0.183620	0.091417	11.965442	0.091297	0.092841	4.908152	1.479753	1.617562	29.500000	7.460000	34.673685
2074842.499203	0.069673	7.904793	0.044962	12.155066	0.183905	0.091412	11.967676	0.092126	0.092831	4.889624	1.480385	1.610845	29.500000	7.460000	34.673685
2074848.499546	0.025137	7.906097	0.045035	12.153770	0.184552	0.091417	11.973979	0.092363	0.092803	4.871876	1.482122	1.604546	29.500000	7.460000	34.673685
2074854.499889	0.034311	7.906757	0.045074	12.156643	0.183691	0.091405	11.974416	0.093176	0.092801	4.855247	1.481017	1.598389	29.500000	7.460000	34.673685
2074860.499232	0.052628	7.907086	0.045094	12.159323	0.184260	0.091393	11.976404	0.093050	0.092792	4.837979	1.476042	1.592213	29.500000	7.460000	34.673685
2074866.499576	0.047385	7.908386	0.045169	12.161391	0.183083	0.091384	11.979640	0.093026	0.092778	4.820727	1.471066	1.585945	29.500000	7.460000	34.673685
2074872.499919	0.075941	7.908679	0.045185	12.160487	0.185547	0.091388	11.987227	0.091952	0.092745	4.803611	1.464749	1.579655	29.500000	7.460000	34.673685
2074878.499262	0.060672	7.908641	0.045185	12.163464	0.182681	0.091375	11.991952	0.092213	0.092724	4.786404	1.460089	1.573498	29.500000	7.460000	34.673685
2074884.499605	0.060522	7.909959	0.045259	12.162293	0.182918	0.091380	11.995198	0.090586	0.092710	4.770594	1.457562	1.567789	29.500000	7.460000	34.673685
2074890.499948	0.014645	7.910154	0.045270	12.162737	0.182318	0.091378	11.997975	0.092955	0.092697	4.754556	1.457641	1.561882	29.500000	7.460000	34.673685
2074896.499291	0.063649	7.910858	0.045310	12.163083	0.184094	0.091377	12.002111	0.092773	0.092679	4.738821	1.455193	1.556279	29.500000	7.460000	34.673685
2074902.499635	0.028706	7.910429	0.045286	12.162416	0.183226	0.091380	12.003075	0.092939	0.092675	4.723940	1.451560	1.550901	29.500000	7.460000	34.673685
2074908.499978	0.022445	7.911030	0.045320	12.162746	0.184165	0.091378	12.005763	0.093129	0.092663	4.710649	1.445953	1.546000	29.500000	7.460000	34.673685
2074914.499321	0.075673	7.911302	0.045335	12.162459	0.183960	0.091380	12.003779	0.092584	0.092672	4.696643	1.438293	1.540937	29.500000	7.460000	34.673685
2074920.499664	0.074575	7.912095	0.045379	12.160484	0.183739	0.091388	12.003291	0.092031	0.092674	4.683303	1.433476	1.536135	29.500000	7.460000	34.673685
2074926.500007	0.067604	7.912563	0.045405	12.160681	0.182073	0.091387	12.002855	0.093255	0.092676	4.670346	1.428422	1.531445	29.500000	7.460000	34.673685
2074932.499351	0.020219	7.913111	0.045435	12.158341	0.182523	0.091398	12.004443	0.091944	0.092669	4.657849	1.423526	1.526950	29.500000	7.460000	34.673685
2074938.499694	0.065402	7.914442	0.045509	12.156189	0.183644	0.091407	12.004617	0.093065	0.092668	4.645318	1.418866	1.522515	29.500000	7.460000	34.673685
2074944.500037	0.017613	7.915047	0.045543	12.156466	0.184110	0.091406	12.003435	0.093926	0.092673	4.633195	1.414681	1.518049	29.500000	7.460000	34.673685
2074950.499380	0.073541	7.914903	0.045536	12.157310	0.184418	0.091402	12.002068	0.094044	0.092679	4.621242	1.409627	1.513712	29.500000	7.460000	34.673685
2074956.501723	0.065520	7.915630	0.045577	12.156651	0.185010	0.091405	11.999318	0.092939	0.092691	4.608606	1.405046	1.509144	29.500000	7.460000	34.673685
2074962.500066	0.056741	7.915504	0.045567	12.152113	0.184228	0.091425	11.998637	0.092118	0.092694	4.595490	1.401019	1.504526	29.500000	7.460000	34.673685
2074968.499410	0.050480	7.915198	0.045549	12.151595	0.182776	0.091427	11.997453	0.093018	0.092700	4.582487	1.397228	1.499746	29.500000	7.460000	34.673685
2074974.499753	0.057112	7.915846	0.045588	12.154580	0.184086	0.091414	11.992036	0.094692	0.092723	4.569417	1.393516	1.495061	29.500000	7.460000	34.673685
2074980.500096	0.075436	7.916770	0.045638	12.151791	0.185081	0.091426	11.989463	0.092331	0.092735	4.556592	1.391779	1.490451	29.500000	7.460000	34.673685
2074986.499439	0.015806	7.916093	0.045597	12.145921	0.183936	0.091451	11.986222	0.091778	0.092749	4.544392	1.385777	1.486030	29.500000	7.460000	34.673685
2074992.499783	0.044101	7.916296	0.045607	12.143975	0.184331	0.091460	11.983498	0.093460	0.092761	4.532492	1.382145	1.481747	29.500000	7.460000	34.673685
2074998.500125	0.027616	7.916910	0.045641	12.141942	0.186470	0.091469	11.978328	0.093950	0.092784	4.520866	1.378433	1.477563	29.500000	7.460000	34.673685
2075004.499469	0.074307	7.916591	0.045622	12.141330	0.184283	0.091471	11.972920	0.092473	0.092808	4.509807	1.375195	1.473637	29.500000	7.460000	34.673685
2075010.499812	0.014850	7.916260	0.045600	12.135740	0.184062	0.091496	11.971343	0.093397	0.092815	4.498439	1.371247	1.469518	29.500000	7.460000	34.673685
2075016.499155	0.015932	7.916851	0.045631	12.130979	0.183383	0.091516	11.968945	0.092679	0.092825	4.486874	1.366350	1.465455	29.500000	7.460000	34.673685
2075022.499498	0.048601	7.917407	0.045662	12.130931	0.185128	0.091517	11.962725	0.092663	0.092853	4.475554	1.362639	1.461358	29.500000	7.460000	34.673685
2075028.499842	0.022793	7.917482	0.045665	12.128135	0.185112	0.091529	11.957490	0.093365	0.092876	4.464531	1.358690	1.457334	29.500000	7.460000	34.673685
2075034.499185	0.016863	7.917600	0.045671	12.127177	0.185120	0.091533	11.954827	0.094258	0.092888	4.453516	1.355057	1.453425	29.500000	7.460000	34.673685
2075040.499528	0.048704	7.918139	0.045700	12.123967	0.182373	0.091547	11.951675	0.094881	0.092902	4.442528	1.350003	1.449484	29.500000	7.460000	34.673685
2075046.499871	0.042925	7.919378	0.045769	12.121229	0.184560	0.091559	11.947212	0.093002	0.092921	4.431598	1.344949	1.445559	29.500000	7.460000	34.673685
2075052.499214	0.016745	7.918746	0.045733	12.122181	0.184986	0.091555	11.941916	0.093231	0.092945	4.421003	1.341316	1.441649	29.500000	7.460000	34.673685
2075058.499557	0.016121	7.918854	0.045739	12.120601	0.185862	0.091561	11.936651	0.093231	0.092968	4.410762	1.338789	1.438025	29.500000	7.460000	34.673685
2075064.499900	0.055825	7.919274	0.045763	12.121286	0.184568	0.091559	11.935108	0.093429	0.092975	4.400266	1.333814	1.434154	29.500000	7.460000	34.673685
2075070.499244	0.044306	7.920079	0.045807	12.119810	0.185112	0.091565	11.934210	0.093192	0.092979	4.389708	1.328760	1.430349	29.500000	7.460000	34.673685
2075076.499587	0.016082	7.919325	0.045763	12.117046	0.184820	0.091577	11.931284	0.094392	0.092992	4.378888	1.323785	1.426464	29.500000	7.460000	34.673685
2075082.499930	0.047133	7.919185	0.045753	12.112902	0.184891	0.091595	11.927594	0.093271	0.093008	4.368061	1.318730	1.422593	29.500000	7.460000	34.673685
2075088.499273	0.018435	7.919500	0.045772	12.113797	0.186565	0.091591	11.925155	0.093160	0.093019	4.357368	1.312571	1.418777	29.500000	7.460000	34.673685
2075094.499616	0.074149	7.919723	0.045783	12.113277	0.186352	0.091593	11.922935	0.092718	0.093029	4.346687	1.306253	1.414851	29.500000	7.460000	34.673685
2075100.499959	0.057246	7.920400	0.045820	12.110230	0.185539	0.091607	11.918766	0.094502	0.093047	4.335850	1.303963	1.411029	29.500000	7.460000	34.673685
2075106.499303	0.016958	7.920240	0.045810	12.108319	0.185105	0.091615	11.914454	0.093910	0.093066	4.325086	1.300172	1.407089	29.500000	7.460000	34.673685
2075112.499646	0.075515	7.920667	0.045838	12.114257	0.184884	0.091589	11.908291	0.094021	0.093094	4.314820	1.295355	1.403305	29.500000	7.460000	34.673685
2075118.499989	0.017013	7.921723	0.045898	12.116013	0.184947	0.091581	11.901530	0.095213	0.093124	4.303862	1.291880	1.399385	29.500000	7.460000	34.673685
2075124.499332	0.055920	7.921861	0.045907	12.117644	0.187039	0.091574	11.894466	0.092876	0.093155	4.293358	1.288879	1.395499	29.500000	7.460000	34.673685
2075130.499675	0.035267	7.922450	0.045939	12.114498	0.184165	0.091588	11.893291	0.093357	0.093160	4.282267	1.283430	1.391519	29.500000	7.460000	34.673685
2075136.500019	0.032274	7.922376	0.045934	12.114370	0.184552	0.091589	11.888880	0.093444	0.093180	4.271361	1.279719	1.387573	29.500000	7.460000	34.673685
2075142.499362	0.051577	7.922259	0.045930	12.118549	0.185523	0.091570	11.883363	0.091565	0.093204	4.260319	1.276165	1.383528	29.500000	7.460000	34.673685
2075148.499705	0.070004	7.922773	0.045960	12.119474	0.186881	0.091566	11.881273	0.095134	0.093214	4.249020	1.274743	1.379426	29.500000	7.460000	34.673685
2075154.500048	0.074710	7.923688	0.046011	12.119241	0.184568	0.091567	11.881003	0.093689	0.093215	4.238084	1.270953	1.375469	29.500000	7.460000	34.673685
2075160.499392	0.076652	7.924344	0.046049	12.119544	0.185231	0.091566	11.878076	0.094913	0.093228	4.226345	1.266293	1.371287	29.500000	7.460000	34.673685
2075166.501735	0.030806	7.924217	0.046043	12.121781	0.185152	0.091556	11.873725	0.093839	0.093247	4.214773	1.259976	1.367001	29.500000	7.460000	34.673685
2075172.500078	0.072689	7.924360	0.046052	12.123649	0.185247	0.091548	11.868930	0.093089	0.093268	4.202989	1.253658	1.362714	29.500000	7.460000	34.673685
2075178.499421	0.070162	7.925120	0.046093	12.120664	0.185405	0.091561	11.867747	0.092339	0.093274	4.190985	1.247656	1.358404	29.500000	7.460000	34.673685
2075184.499764	0.054183	7.925787	0.046132	12.122783	0.184418	0.091552	11.861508	0.091952	0.093301	4.179470	1.241023	1.354283	29.500000	7.460000	34.673685
2075190.500107	0.062354	7.925397	0.046110	12.121925	0.184694	0.091556	11.857631	0.093618	0.093319	4.167476	1.234784	1.349877	29.500000	7.460000	34.673685
2075196.499451	0.026693	7.925469	0.046115	12.124030	0.185262	0.091547	11.852495	0.093768	0.093341	4.155525	1.230282	1.345602	29.500000	7.460000	34.673685
2075202.499794	0.065915	7.925069	0.046094	12.127332	0.185041	0.091532	11.846183	0.093539	0.093369	4.143031	1.226176	1.341042	29.500000	7.460000	34.673685
2075208.499137	0.020432	7.925946	0.046142	12.124640	0.187197	0.091544	11.844045	0.092679	0.093379	4.130574	1.223491	1.336488	29.500000	7.460000	34.673685
2075214.499480	0.071441	7.925676	0.046129	12.127354	0.185705	0.091532	11.838017	0.093831	0.093406	4.118694	1.222227	1.332232	29.500000	7.460000	34.673685
2075220.499823	0.038614	7.925077	0.046095	12.127895	0.184070	0.091530	11.834031	0.094684	0.093423	4.106883	1.222306	1.327880	29.500000	7.460000	34.673685
2075226.499166	0.072365	7.925409	0.046114	12.129110	0.184757	0.091524	11.826260	0.093950	0.093458	4.095223	1.222227	1.323717	29.500000	7.460000	34.673685
2075232.499509	0.060838	7.925447	0.046117	12.129511	0.186905	0.091523	11.820866	0.095181	0.093482	4.084038	1.223570	1.319596	29.500000	7.460000	34.673685
2075238.499853	0.075428	7.925720	0.046134	12.132734	0.183020	0.091509	11.811928	0.093705	0.093522	4.073099	1.224754	1.315667	29.500000	7.460000	34.673685
2075244.499196	0.047512	7.926200	0.046161	12.132599	0.185547	0.091509	11.805457	0.093847	0.093551	4.062480	1.222227	1.311825	29.500000	7.460000	34.673685
2075250.499539	0.026772	7.926339	0.046168	12.131540	0.186044	0.091514	11.802506	0.094139	0.093564	4.051725	1.218516	1.307945	29.500000	7.460000	34.673685
2075256.499882	0.041748	7.926054	0.046152	12.131092	0.186115	0.091516	11.799892	0.095702	0.093576	4.041200	1.215436	1.304140	29.500000	7.460000	34.673685
2075262.499226	0.073802	7.926825	0.046193	12.126155	0.187347	0.091537	11.797655	0.093026	0.093586	4.030410	1.212198	1.300292	29.500000	7.460000	34.673685
2075268.499568	0.076754	7.928068	0.046261	12.122259	0.187441	0.091554	11.798636	0.093894	0.093581	4.019766	1.209750	1.296484	29.500000	7.460000	34.673685
2075274.499912	0.076889	7.928369	0.046276	12.118900	0.187363	0.091569	11.797224	0.094542	0.093587	4.009389	1.207223	1.292703	29.500000	7.460000	34.673685
2075280.499255	0.064873	7.928410	0.046280	12.122494	0.186052	0.091553	11.790364	0.092750	0.093618	3.999110	1.204696	1.289005	29.500000	7.460000	34.673685
2075286.499598	0.061509	7.929033	0.046315	12.120617	0.185752	0.091561	11.787362	0.092386	0.093631	3.988870	1.202248	1.285257	29.500000	7.460000	34.673685
2075292.499941	0.049083	7.929188	0.046321	12.115730	0.184876	0.091583	11.787010	0.094723	0.093633	3.978459	1.199642	1.281546	29.500000	7.460000	34.673685
2075298.499284	0.075689	7.929015	0.046311	12.115764	0.184568	0.091583	11.779259	0.091984	0.093668	3.968305	1.197272	1.277870	29.500000	7.460000	34.673685
2075304.499628	0.076849	7.928860	0.046302	12.115670	0.186091	0.091583	11.776325	0.093784	0.093681	3.958323	1.193640	1.274258	29.500000	7.460000	34.673685
2075310.499971	0.023535	7.928824	0.046301	12.116691	0.185957	0.091579	11.772153	0.093634	0.093699	3.948279	1.187164	1.270610	29.500000	7.460000	34.673685
2075316.499314	0.035559	7.929144	0.046319	12.117758	0.185910	0.091574	11.766936	0.093357	0.093723	3.937997	1.182189	1.266877	29.500000	7.460000	34.673685
2075322.499657	0.075183	7.929040	0.046313	12.116761	0.185870	0.091578	11.763455	0.093997	0.093738	3.927822	1.177372	1.263205	29.500000	7.460000	34.673685
2075328.500000	0.020850	7.929741	0.046350	12.111915	0.186644	0.091599	11.761417	0.093681	0.093747	3.917309	1.173502	1.259455	29.500000	7.460000	34.673685
2075334.499343	0.028951	7.930389	0.046387	12.112085	0.184884	0.091599	11.760559	0.093673	0.093751	3.907244	1.169711	1.255810	29.500000	7.460000	34.673685
2075340.499687	0.041961	7.931048	0.046425	12.113805	0.184773	0.091591	11.760369	0.092789	0.093752	3.897257	1.166000	1.252176	29.500000	7.460000	34.673685
2075346.500030	0.071560	7.931746	0.046460	12.106083	0.186502	0.091625	11.762607	0.092165	0.093742	3.886753	1.163394	1.248463	29.500000	7.460000	34.673685
2075352.499373	0.025769	7.932702	0.046511	12.100837	0.185499	0.091648	11.762343	0.093689	0.093743	3.876481	1.162051	1.244807	29.500000	7.460000	34.673685
2075358.499716	0.037185	7.932004	0.046471	12.100095	0.184497	0.091651	11.758952	0.093168	0.093758	3.866481	1.161182	1.241197	29.500000	7.460000	34.673685
2075364.500060	0.016840	7.932452	0.046498	12.102144	0.185381	0.091642	11.753784	0.093989	0.093781	3.856685	1.159682	1.237687	29.500000	7.460000	34.673685
2075370.499403	0.071267	7.933794	0.046571	12.096864	0.185539	0.091665	11.750314	0.094297	0.093797	3.846950	1.158418	1.234166	29.500000	7.460000	34.673685
2075376.499746	0.032890	7.934513	0.046611	12.096702	0.185941	0.091666	11.750439	0.093113	0.093796	3.837422	1.157155	1.230720	29.500000	7.460000	34.673685
2075382.500089	0.018206	7.934729	0.046623	12.095280	0.184710	0.091672	11.752738	0.093910	0.093786	3.828052	1.154707	1.227346	29.500000	7.460000	34.673685
2075388.499432	0.076470	7.935568	0.046670	12.094819	0.185578	0.091674	11.753967	0.094226	0.093780	3.819139	1.150995	1.224181	29.500000	7.460000	34.673685
2075394.499775	0.075468	7.935614	0.046670	12.090484	0.185294	0.091693	11.756908	0.093484	0.093767	3.809894	1.146178	1.220830	29.500000	7.460000	34.673685
2075400.500119	0.055880	7.936042	0.046693	12.089033	0.185555	0.091699	11.756987	0.094210	0.093767	3.800860	1.142545	1.217632	29.500000	7.460000	34.673685
2075406.499462	0.019453	7.935821	0.046680	12.088130	0.185286	0.091703	11.755356	0.093784	0.093774	3.791814	1.138913	1.214367	29.500000	7.460000	34.673685
2075412.499805	0.016879	7.936140	0.046698	12.087535	0.187370	0.091705	11.756031	0.093902	0.093771	3.783468	1.134095	1.211299	29.500000	7.460000	34.673685
2075418.499148	0.020906	7.936468	0.046718	12.089223	0.185894	0.091698	11.753031	0.093910	0.093785	3.774551	1.128251	1.208051	29.500000	7.460000	34.673685
2075424.499491	0.028935	7.937227	0.046761	12.091163	0.185128	0.091690	11.751995	0.092600	0.093789	3.765392	1.123276	1.204769	29.500000	7.460000	34.673685
2075430.499835	0.075981	7.936967	0.046746	12.090474	0.186123	0.091693	11.751473	0.093973	0.093792	3.756223	1.118380	1.201402	29.500000	7.460000	34.673685
2075436.499177	0.030916	7.937381	0.046773	12.095438	0.186123	0.091671	11.746498	0.094242	0.093814	3.747067	1.112062	1.198031	29.500000	7.460000	34.673685
2075442.499521	0.031311	7.938099	0.046814	12.096991	0.185484	0.091664	11.741720	0.093965	0.093835	3.737711	1.107008	1.194683	29.500000	7.460000	34.673685
2075448.499864	0.069981	7.939282	0.046883	12.100458	0.186036	0.091649	11.738972	0.094321	0.093848	3.728502	1.102033	1.191252	29.500000	7.460000	34.673685
2075454.499207	0.066491	7.939746	0.046908	12.098167	0.183699	0.091659	11.737610	0.094668	0.093854	3.718776	1.097137	1.187757	29.500000	7.460000	34.673685
2075460.499550	0.049604	7.940104	0.046929	12.098579	0.185768	0.091657	11.734618	0.094613	0.093867	3.709138	1.091056	1.184264	29.500000	7.460000	34.673685
2075466.499894	0.072546	7.940211	0.046933	12.095897	0.185215	0.091669	11.732271	0.094036	0.093877	3.700038	1.085844	1.181001	29.500000	7.460000	34.673685
2075472.499237	0.040201	7.940327	0.046939	12.094758	0.186281	0.091674	11.730525	0.095118	0.093885	3.690501	1.080790	1.177562	29.500000	7.460000	34.673685
2075478.499580	0.063562	7.940203	0.046934	12.098970	0.184015	0.091656	11.725392	0.094731	0.093908	3.680924	1.077157	1.174048	29.500000	7.460000	34.673685
2075484.499923	0.068275	7.940136	0.046932	12.100436	0.184576	0.091649	11.723084	0.092181	0.093919	3.671404	1.073366	1.170586	29.500000	7.460000	34.673685
2075490.499266	0.016295	7.941016	0.046981	12.100481	0.185176	0.091649	11.719579	0.094155	0.093934	3.661943	1.068391	1.167218	29.500000	7.460000	34.673685
2075496.499609	0.025832	7.940753	0.046967	12.101999	0.185531	0.091642	11.712562	0.093476	0.093966	3.653272	1.064679	1.164062	29.500000	7.460000	34.673685
2075502.499953	0.076983	7.941982	0.047038	12.104501	0.186391	0.091632	11.705990	0.094186	0.093995	3.644045	1.059625	1.160694	29.500000	7.460000	34.673685
2075508.499296	0.024364	7.942154	0.047048	12.104707	0.186652	0.091631	11.703896	0.094210	0.094005	3.634709	1.054650	1.157312	29.500000	7.460000	34.673685
2075514.499639	0.016682	7.943020	0.047096	12.101930	0.185097	0.091643	11.707309	0.094463	0.093989	3.625210	1.052360	1.153906	29.500000	7.460000	34.673685
2075520.499982	0.052264	7.943163	0.047104	12.101913	0.183518	0.091643	11.708700	0.095268	0.093983	3.615916	1.049912	1.150485	29.500000	7.460000	34.673685
2075526.499325	0.055738	7.944034	0.047156	12.106336	0.185547	0.091624	11.707302	0.093263	0.093989	3.606492	1.048490	1.147081	29.500000	7.460000	34.673685
2075532.499669	0.070510	7.944884	0.047206	12.110964	0.184370	0.091603	11.703391	0.093500	0.094007	3.597017	1.047385	1.143598	29.500000	7.460000	34.673685
2075538.500012	0.070928	7.945071	0.047217	12.111636	0.183668	0.091601	11.702428	0.093586	0.094011	3.587277	1.046200	1.140065	29.500000	7.460000	34.673685
2075544.499355	0.073091	7.945329	0.047231	12.109429	0.185334	0.091610	11.700697	0.094486	0.094019	3.577584	1.043594	1.136522	29.500000	7.460000	34.673685
2075550.499698	0.071923	7.945392	0.047236	12.112284	0.186241	0.091598	11.697468	0.093634	0.094033	3.567727	1.041067	1.132981	29.500000	7.460000	34.673685
2075556.500041	0.074986	7.945912	0.047265	12.112123	0.185326	0.091598	11.699338	0.094431	0.094025	3.558181	1.039882	1.129469	29.500000	7.460000	34.673685
2075562.499384	0.033593	7.946123	0.047276	12.110380	0.185752	0.091606	11.699492	0.093705	0.094024	3.548756	1.038619	1.126078	29.500000	7.460000	34.673685
2075568.499728	0.059149	7.946876	0.047319	12.110896	0.186589	0.091604	11.700276	0.094226	0.094021	3.539309	1.037355	1.122653	29.500000	7.460000	34.673685
2075574.500071	0.073470	7.947276	0.047342	12.111017	0.186889	0.091603	11.702568	0.094368	0.094010	3.529748	1.034907	1.119191	29.500000	7.460000	34.673685
2075580.499414	0.063065	7.948335	0.047402	12.111559	0.184560	0.091601	11.706114	0.092939	0.093995	3.520192	1.033723	1.115784	29.500000	7.460000	34.673685
2075586.499757	0.041077	7.949278	0.047456	12.112129	0.185894	0.091598	11.709989	0.094139	0.093977	3.511095	1.029853	1.112427	29.500000	7.460000	34.673685
2075592.500100	0.076620	7.949672	0.047481	12.116646	0.185784	0.091579	11.711764	0.094139	0.093969	3.501608	1.027563	1.108941	29.500000	7.460000	34.673685
2075598.499444	0.073241	7.949403	0.047467	12.118659	0.184726	0.091570	11.715596	0.093515	0.093952	3.492014	1.023772	1.105503	29.500000	7.460000	34.673685
2075604.499787	0.026669	7.949556	0.047476	12.119657	0.185405	0.091566	11.718318	0.093950	0.093940	3.482516	1.021245	1.101996	29.500000	7.460000	34.673685
2075610.503130	0.070896	7.950159	0.047511	12.121965	0.187173	0.091556	11.721448	0.093815	0.093926	3.472944	1.017612	1.098563	29.500000	7.460000	34.673685
2075616.499473	0.076147	7.950922	0.047554	12.121847	0.183526	0.091556	11.725542	0.094068	0.093908	3.463472	1.016349	1.095136	29.500000	7.460000	34.673685
2075622.499816	0.035251	7.951651	0.047597	12.123714	0.186455	0.091548	11.724283	0.093657	0.093913	3.454759	1.015085	1.091906	29.500000	7.460000	34.673685
2075628.499159	0.016184	7.951258	0.047575	12.124955	0.185815	0.091543	11.724033	0.094431	0.093914	3.445807	1.016270	1.088706	29.500000	7.460000	34.673685
2075634.499503	0.046098	7.952016	0.047620	12.128173	0.187639	0.091529	11.722641	0.093271	0.093921	3.437529	1.017612	1.085621	29.500000	7.460000	34.673685
2075640.499846	0.029953	7.952356	0.047639	12.128590	0.185760	0.091527	11.718417	0.094013	0.093940	3.429181	1.018797	1.082597	29.500000	7.460000	34.673685
2075646.499189	0.024514	7.952640	0.047660	12.136279	0.186281	0.091493	11.716757	0.094715	0.093947	3.421230	1.017612	1.079631	29.500000	7.460000	34.673685
2075652.499532	0.078049	7.952765	0.047669	12.138893	0.187347	0.091482	11.716812	0.093081	0.093947	3.413251	1.018876	1.076763	29.500000	7.460000	34.673685
2075658.499876	0.076502	7.952388	0.047648	12.139809	0.185776	0.091478	11.714901	0.094305	0.093955	3.405399	1.017770	1.073910	29.500000	7.460000	34.673685
2075664.499218	0.026937	7.953151	0.047694	12.144967	0.186834	0.091456	11.709885	0.093357	0.093978	3.397716	1.016349	1.071070	29.500000	7.460000	34.673685
2075670.499562	0.048656	7.953368	0.047707	12.145531	0.184457	0.091453	11.706337	0.093997	0.093994	3.389934	1.016270	1.068199	29.500000	7.460000	34.673685
2075676.499905	0.075444	7.954081	0.047746	12.144129	0.184355	0.091459	11.704411	0.093792	0.094002	3.381997	1.014927	1.065342	29.500000	7.460000	34.673685
2075682.499248	0.037974	7.954593	0.047774	12.141848	0.185705	0.091469	11.705127	0.094265	0.093999	3.374090	1.014848	1.062507	29.500000	7.460000	34.673685
2075688.499591	0.076060	7.955379	0.047818	12.140343	0.187394	0.091476	11.705996	0.094139	0.093995	3.366326	1.015006	1.059715	29.500000	7.460000	34.673685
2075694.499935	0.074173	7.955432	0.047821	12.142139	0.185926	0.091468	11.706498	0.094186	0.093993	3.358940	1.013664	1.057022	29.500000	7.460000	34.673685
2075700.499278	0.078586	7.955897	0.047848	12.142579	0.186478	0.091466	11.709748	0.093618	0.093978	3.351523	1.011137	1.054377	29.500000	7.460000	34.673685
2075706.501621	0.062457	7.955201	0.047810	12.144736	0.184702	0.091457	11.707891	0.094447	0.093987	3.344431	1.008136	1.051786	29.500000	7.460000	34.673685
2075712.499964	0.064075	7.955488	0.047829	12.150238	0.186691	0.091433	11.707141	0.094005	0.093990	3.337136	1.002371	1.049082	29.500000	7.460000	34.673685
2075718.499307	0.018324	7.956490	0.047887	12.152092	0.184473	0.091425	11.711177	0.094250	0.093972	3.329841	0.996290	1.046375	29.500000	7.460000	34.673685
2075724.499650	0.054443	7.957376	0.047937	12.151415	0.185278	0.091428	11.713981	0.093121	0.093959	3.322332	0.991236	1.043665	29.500000	7.460000	34.673685
2075730.500994	0.040975	7.957462	0.047942	12.151222	0.183289	0.091428	11.714956	0.093271	0.093955	3.315053	0.988393	1.041078	29.500000	7.460000	34.673685
2075736.499337	0.065923	7.957410	0.047939	12.152471	0.184915	0.091423	11.713619	0.092015	0.093961	3.307921	0.986261	1.038482	29.500000	7.460000	34.673685
2075742.500680	0.017006	7.958390	0.047993	12.148942	0.184915	0.091438	11.715546	0.093602	0.093952	3.300865	0.985708	1.035927	29.500000	7.460000	34.673685
2075748.500023	0.069128	7.957518	0.047944	12.149077	0.187063	0.091438	11.717424	0.093752	0.093944	3.294091	0.985234	1.033475	29.500000	7.460000	34.673685
2075754.499366	0.067959	7.958402	0.047993	12.147149	0.185476	0.091446	11.720928	0.095110	0.093928	3.287726	0.985155	1.031195	29.500000	7.460000	34.673685
2075760.499710	0.019342	7.958634	0.048004	12.144063	0.185823	0.091460	11.723492	0.093665	0.093917	3.281454	0.987524	1.028999	29.500000	7.460000	34.673685
2075766.500052	0.064880	7.959793	0.048069	12.143078	0.183383	0.091464	11.724453	0.092102	0.093912	3.275734	0.987445	1.026906	29.500000	7.460000	34.673685
2075772.499396	0.077394	7.960360	0.048103	12.146618	0.184836	0.091448	11.728854	0.094171	0.093893	3.270376	0.987445	1.024928	29.500000	7.460000	34.673685
2075778.499739	0.045348	7.960603	0.048117	12.146744	0.185649	0.091448	11.734837	0.093736	0.093866	3.265255	0.985076	1.023073	29.500000	7.460000	34.673685
2075784.500082	0.066309	7.960302	0.048099	12.144718	0.184757	0.091457	11.741903	0.093263	0.093834	3.260099	0.982707	1.021231	29.500000	7.460000	34.673685
2075790.499425	0.067652	7.959882	0.048076	12.146953	0.184994	0.091447	11.748498	0.093279	0.093805	3.255177	0.980417	1.019424	29.500000	7.460000	34.673685
2075796.499768	0.033806	7.959438	0.048051	12.147706	0.185420	0.091444	11.753453	0.093318	0.093783	3.250263	0.977969	1.017637	29.500000	7.460000	34.673685
2075802.500112	0.016153	7.959831	0.048073	12.145957	0.186060	0.091451	11.760668	0.093531	0.093751	3.245493	0.975521	1.015931	29.500000	7.460000	34.673685
2075808.499455	0.022871	7.960185	0.048091	12.143143	0.184805	0.091464	11.770399	0.093918	0.093707	3.240677	0.974336	1.014222	29.500000	7.460000	34.673685
2075814.499798	0.078270	7.960721	0.048120	12.141391	0.184086	0.091471	11.779768	0.093492	0.093665	3.236047	0.970782	1.012566	29.500000	7.460000	34.673685
2075820.499141	0.044393	7.961553	0.048167	12.139967	0.185199	0.091477	11.787389	0.093421	0.093631	3.231422	0.968413	1.010909	29.500000	7.460000	34.673685
2075826.499485	0.046572	7.961745	0.048177	12.138431	0.185199	0.091484	11.793801	0.092986	0.093603	3.226736	0.964702	1.009230	29.500000	7.460000	34.673685
2075832.499827	0.063325	7.961556	0.048168	12.143041	0.184473	0.091464	11.796243	0.095434	0.093592	3.222118	0.960911	1.007533	29.500000	7.460000	34.673685
2075838.499171	0.029069	7.961029	0.048141	12.146270	0.184607	0.091450	11.797242	0.092371	0.093587	3.217303	0.957199	1.005754	29.500000	7.460000	34.673685
2075844.499514	0.070802	7.961239	0.048153	12.147432	0.185926	0.091445	11.803843	0.092765	0.093558	3.212360	0.954672	1.003951	29.500000	7.460000	34.673685
2075850.499857	0.028240	7.961137	0.048147	12.145829	0.184947	0.091452	11.805781	0.093271	0.093549	3.207431	0.950961	1.002185	29.500000	7.460000	34.673685
2075856.499200	0.045862	7.961189	0.048150	12.146784	0.184876	0.091448	11.811459	0.093776	0.093524	3.202431	0.947170	1.000334	29.500000	7.460000	34.673685
2075862.499544	0.045790	7.961749	0.048180	12.142640	0.184276	0.091466	11.817835	0.093444	0.093496	3.197133	0.945906	0.998495	29.500000	7.460000	34.673685
2075868.499887	0.057672	7.961051	0.048142	12.145984	0.185728	0.091451	11.816179	0.093815	0.093503	3.192114	0.944643	0.996608	29.500000	7.460000	34.673685
2075874.499230	0.016942	7.960950	0.048136	12.145608	0.183194	0.091453	11.816847	0.093065	0.093500	3.186927	0.943537	0.994767	29.500000	7.460000	34.673685
2075880.499573	0.041480	7.960830	0.048129	12.146088	0.185712	0.091451	11.813905	0.093831	0.093513	3.181936	0.943695	0.992924	29.500000	7.460000	34.673685
2075886.499916	0.073865	7.960213	0.048094	12.146422	0.182910	0.091449	11.815187	0.094021	0.093507	3.176941	0.942037	0.991143	29.500000	7.460000	34.673685
2075892.499259	0.041377	7.960288	0.048099	12.146160	0.187339	0.091450	11.817912	0.091628	0.093495	3.172138	0.938483	0.989407	29.500000	7.460000	34.673685
2075898.499602	0.016532	7.960283	0.048097	12.143389	0.183431	0.091462	11.819733	0.092971	0.093487	3.167270	0.937693	0.987648	29.500000	7.460000	34.673685
2075904.499946	0.071236	7.959641	0.048060	12.142001	0.185934	0.091468	11.823781	0.095039	0.093469	3.162347	0.934692	0.985882	29.500000	7.460000	34.673685
2075910.499289	0.018119	7.959786	0.048069	12.143820	0.184891	0.091461	11.822787	0.092584	0.093474	3.157578	0.933429	0.984164	29.500000	7.460000	34.673685
2075916.499632	0.079691	7.959507	0.048054	12.145381	0.185420	0.091454	11.822185	0.093452	0.093476	3.152826	0.929796	0.982426	29.500000	7.460000	34.673685
2075922.499975	0.077954	7.958707	0.048007	12.141742	0.186368	0.091470	11.822579	0.093500	0.093474	3.147900	0.926006	0.980655	29.500000	7.460000	34.673685
2075928.499319	0.043264	7.957309	0.047925	12.138118	0.186486	0.091485	11.824129	0.092923	0.093468	3.142761	0.923478	0.978836	29.500000	7.460000	34.673685
2075934.499661	0.072270	7.956267	0.047865	12.136573	0.185784	0.091492	11.824482	0.093800	0.093466	3.137534	0.920872	0.976960	29.500000	7.460000	34.673685
2075940.500005	0.076920	7.955228	0.047807	12.136418	0.186597	0.091493	11.823006	0.091676	0.093473	3.132115	0.918424	0.975033	29.500000	7.460000	34.673685
2075946.499348	0.007705	7.955205	0.047804	12.134174	0.186565	0.091502	11.822489	0.093744	0.093475	3.126642	0.917161	0.973043	29.500000	7.460000	34.673685
2075952.499691	0.072854	7.954568	0.047764	12.128280	0.185452	0.091528	11.824472	0.093184	0.093466	3.120821	0.915897	0.971004	29.500000	7.460000	34.673685
2075958.500034	0.095544	7.954061	0.047735	12.126704	0.185602	0.091535	11.828267	0.093500	0.093449	3.115106	0.915897	0.968954	29.500000	7.460000	34.673685
2075964.499378	0.073904	7.953985	0.047732	12.129163	0.184670	0.091524	11.829845	0.092607	0.093442	3.109802	0.917082	0.967007	29.500000	7.460000	34.673685
2075970.501721	0.072894	7.953816	0.047722	12.128489	0.185712	0.091527	11.830675	0.093563	0.093438	3.104301	0.917240	0.965056	29.500000	7.460000	34.673685
2075976.500064	0.081720	7.952621	0.047655	12.130458	0.184647	0.091519	11.829028	0.093823	0.093446	3.098982	0.917240	0.963076	29.500000	7.460000	34.673685
2075982.499407	0.015553	7.952927	0.047672	12.128954	0.184623	0.091525	11.831151	0.092742	0.093436	3.093619	0.917319	0.961152	29.500000	7.460000	34.673685
2075988.500751	0.086189	7.952010	0.047617	12.123906	0.183005	0.091547	11.833450	0.092979	0.093426	3.088052	0.917319	0.959195	29.500000	7.460000	34.673685
2075994.500093	0.031809	7.951633	0.047595	12.122539	0.185073	0.091553	11.833388	0.093405	0.093426	3.082605	0.917161	0.957272	29.500000	7.460000	34.673685
2076000.499437	0.028706	7.950536	0.047536	12.128233	0.185484	0.091528	11.831829	0.093744	0.093433	3.077544	0.917319	0.955343	29.500000	7.460000	34.673685
2076006.499780	0.058138	7.951996	0.047617	12.124330	0.185673	0.091545	11.831708	0.094013	0.093434	3.072176	0.915976	0.953445	29.500000	7.460000	34.673685
2076012.500123	0.082478	7.950801	0.047550	12.126268	0.183399	0.091537	11.828794	0.093965	0.093447	3.067220	0.918424	0.951660	29.500000	7.460000	34.673685
2076018.499466	0.064612	7.951127	0.047568	12.124329	0.184962	0.091545	11.828165	0.094684	0.093450	3.062747	0.923478	0.950064	29.500000	7.460000	34.673685
2076024.499809	0.040272	7.951246	0.047573	12.121922	0.184820	0.091556	11.827668	0.092615	0.093452	3.058825	0.928375	0.948650	29.500000	7.460000	34.673685
2076030.499153	0.033443	7.950658	0.047541	12.124094	0.185136	0.091546	11.824105	0.093515	0.093468	3.055563	0.929717	0.947446	29.500000	7.460000	34.673685
2076036.499496	-0.006891	7.950401	0.047527	12.125921	0.183289	0.091538	11.822629	0.093500	0.093474	3.052306	0.927190	0.946247	29.500000	7.460000	34.673685
2076042.499839	0.097739	7.950732	0.047547	12.127304	0.187291	0.091532	11.820160	0.093034	0.093485	3.049014	0.924110	0.945038	29.500000	7.460000	34.673685
2076048.501182	0.014605	7.950095	0.047511	12.127469	0.185318	0.091532	11.818373	0.094123	0.093493	3.045608	0.920872	0.943803	29.500000	7.460000	34.673685
2076054.499525	0.081547	7.948833	0.047439	12.126556	0.185010	0.091536	11.814109	0.093602	0.093512	3.042050	0.917240	0.942524	29.500000	7.460000	34.673685
2076060.499868	0.018213	7.948231	0.047405	12.127141	0.185231	0.091533	11.810756	0.093579	0.093527	3.038297	0.916845	0.941158	29.500000	7.460000	34.673685
2076066.499212	0.034082	7.947030	0.047335	12.124159	0.185357	0.091546	11.808017	0.094313	0.093539	3.034351	0.917161	0.939764	29.500000	7.460000	34.673685
2076072.499555	-0.004681	7.946048	0.047279	12.123365	0.185799	0.091549	11.806913	0.093855	0.093544	3.030571	0.922452	0.938407	29.500000	7.460000	34.673685
2076078.499898	0.097037	7.945397	0.047243	12.124295	0.186044	0.091545	11.805096	0.093673	0.093552	3.027193	0.927032	0.937175	29.500000	7.460000	34.673685
2076084.499241	-0.001129	7.944645	0.047200	12.123231	0.184899	0.091550	11.804991	0.093760	0.093553	3.024044	0.928454	0.936049	29.500000	7.460000	34.673685
2076090.499584	0.093207	7.944600	0.047196	12.121168	0.185831	0.091559	11.805436	0.093681	0.093551	3.020960	0.927348	0.934957	29.500000	7.460000	34.673685
2076096.499928	0.095079	7.944528	0.047192	12.120692	0.184931	0.091561	11.805831	0.093618	0.093549	3.017905	0.924584	0.933874	29.500000	7.460000	34.673685
2076102.499270	0.022137	7.942487	0.047078	12.124705	0.184773	0.091544	11.802175	0.093144	0.093565	3.015001	0.920951	0.932777	29.500000	7.460000	34.673685
2076108.499614	-0.007002	7.941519	0.047023	12.123777	0.185081	0.091548	11.800639	0.092647	0.093572	3.011878	0.917240	0.931658	29.500000	7.460000	34.673685
2076114.499957	0.083181	7.941895	0.047045	12.123678	0.185168	0.091548	11.798840	0.092789	0.093580	3.008586	0.912186	0.930467	29.500000	7.460000	34.673685
2076120.499300	0.086852	7.941090	0.047001	12.126991	0.185041	0.091534	11.796286	0.094076	0.093592	3.005268	0.907921	0.929228	29.500000	7.460000	34.673685
2076126.499643	0.029574	7.940513	0.046969	12.128079	0.184781	0.091529	11.796045	0.094368	0.093593	3.001869	0.902235	0.927964	29.500000	7.460000	34.673685
2076132.499987	0.088857	7.941293	0.047014	12.130516	0.185278	0.091518	11.794671	0.094826	0.093599	2.998427	0.898523	0.926690	29.500000	7.460000	34.673685
2076138.499330	0.039467	7.941756	0.047041	12.130974	0.186020	0.091516	11.793598	0.093792	0.093604	2.995020	0.893627	0.925452	29.500000	7.460000	34.673685
2076144.499673	0.019019	7.943281	0.047127	12.130114	0.183368	0.091520	11.792883	0.093871	0.093607	2.991365	0.889837	0.924138	29.500000	7.460000	34.673685
2076150.500016	0.095750	7.943014	0.047111	12.129533	0.185736	0.091523	11.791754	0.094013	0.093612	2.987719	0.886125	0.922825	29.500000	7.460000	34.673685
2076156.499359	0.051838	7.942233	0.047070	12.134725	0.183865	0.091500	11.786418	0.094108	0.093636	2.984184	0.882334	0.921508	29.500000	7.460000	34.673685
2076162.499702	0.037627	7.942092	0.047063	12.137014	0.184789	0.091490	11.784657	0.094723	0.093643	2.980550	0.879886	0.920166	29.500000	7.460000	34.673685
2076168.500046	0.035630	7.941302	0.047019	12.138222	0.187663	0.091485	11.779316	0.094036	0.093667	2.976861	0.877359	0.918817	29.500000	7.460000	34.673685
2076174.499389	0.010066	7.940520	0.046976	12.140277	0.185270	0.091476	11.776425	0.095134	0.093680	2.973135	0.874753	0.917445	29.500000	7.460000	34.673685
2076180.499732	0.032053	7.940165	0.046959	12.144365	0.185870	0.091458	11.773139	0.093973	0.093695	2.969432	0.873411	0.916058	29.500000	7.460000	34.673685
2076186.500075	0.010950	7.939530	0.046922	12.143910	0.185262	0.091460	11.776083	0.092915	0.093682	2.965566	0.872305	0.914640	29.500000	7.460000	34.673685
2076192.499418	0.011550	7.938003	0.046837	12.145631	0.184947	0.091453	11.777609	0.092892	0.093675	2.961862	0.872226	0.913281	29.500000	7.460000	34.673685
2076198.499762	0.042735	7.936217	0.046737	12.147633	0.184449	0.091444	11.779873	0.093042	0.093665	2.958259	0.872226	0.911954	29.500000	7.460000	34.673685
2076204.500105	0.031951	7.933849	0.046606	12.153404	0.186612	0.091419	11.781727	0.094810	0.093657	2.954816	0.870962	0.910642	29.500000	7.460000	34.673685
2076210.499448	0.048198	7.934572	0.046648	12.154331	0.184876	0.091415	11.787199	0.093097	0.093632	2.951299	0.869699	0.909359	29.500000	7.460000	34.673685
2076216.499791	0.089702	7.934950	0.046671	12.158394	0.184694	0.091397	11.789787	0.095063	0.093621	2.947968	0.870883	0.908108	29.500000	7.460000	34.673685
2076222.499134	0.049912	7.935239	0.046691	12.164661	0.185349	0.091370	11.789042	0.093634	0.093624	2.944939	0.870962	0.906959	29.500000	7.460000	34.673685
2076228.499477	-0.009756	7.935210	0.046690	12.165808	0.187228	0.091365	11.789380	0.093626	0.093622	2.941931	0.870726	0.905858	29.500000	7.460000	34.673685
2076234.499821	0.064233	7.935608	0.046714	12.168454	0.183533	0.091354	11.791216	0.092173	0.093614	2.939154	0.872305	0.904822	29.500000	7.460000	34.673685
2076240.499164	0.091881	7.934585	0.046658	12.171268	0.184576	0.091341	11.791478	0.093894	0.093613	2.936541	0.872305	0.903844	29.500000	7.460000	34.673685
2076246.499507	0.027648	7.934321	0.046644	12.172493	0.185302	0.091336	11.790266	0.092607	0.093618	2.934138	0.873490	0.902945	29.500000	7.460000	34.673685
2076252.499850	0.026677	7.934088	0.046630	12.170867	0.185720	0.091343	11.790021	0.093436	0.093620	2.931708	0.874674	0.902085	29.500000	7.460000	34.673685
2076258.499193	0.001453	7.933854	0.046618	12.173158	0.187110	0.091333	11.787508	0.094471	0.093631	2.929533	0.876017	0.901285	29.500000	7.460000	34.673685
2076264.499537	0.083023	7.935502	0.046711	12.172746	0.185799	0.091335	11.784827	0.093792	0.093643	2.927384	0.878544	0.900512	29.500000	7.460000	34.673685
2076270.501880	0.052635	7.935509	0.046712	12.173931	0.186841	0.091330	11.783146	0.095094	0.093650	2.925326	0.879491	0.899754	29.500000	7.460000	34.673685
2076276.499223	0.020053	7.936276	0.046755	12.173251	0.183020	0.091333	11.783265	0.092339	0.093650	2.923189	0.877359	0.898988	29.500000	7.460000	34.673685
2076282.499566	0.097139	7.935642	0.046718	12.172282	0.184726	0.091337	11.782348	0.092386	0.093654	2.921053	0.874832	0.898212	29.500000	7.460000	34.673685
2076288.499909	0.011850	7.934756	0.046668	12.171827	0.186952	0.091339	11.781193	0.091778	0.093659	2.918609	0.871436	0.897347	29.500000	7.460000	34.673685
2076294.499252	0.004824	7.935002	0.046684	12.174959	0.185973	0.091325	11.780069	0.093855	0.093664	2.916158	0.868593	0.896424	29.500000	7.460000	34.673685
2076300.499596	0.074686	7.934249	0.046639	12.171467	0.183762	0.091341	11.782731	0.093831	0.093652	2.913355	0.866066	0.895432	29.500000	7.460000	34.673685
2076306.499939	0.082581	7.933645	0.046603	12.168260	0.184655	0.091354	11.785574	0.093665	0.093639	2.910280	0.860933	0.894355	29.500000	7.460000	34.673685
2076312.500282	0.075160	7.933080	0.046570	12.167026	0.184686	0.091360	11.784328	0.094479	0.093645	2.907100	0.857221	0.893217	29.500000	7.460000	34.673685
2076318.499625	0.018987	7.933114	0.046572	12.166456	0.184465	0.091362	11.788447	0.094029	0.093627	2.903637	0.855642	0.891968	29.500000	7.460000	34.673685
2076324.499969	-0.003418	7.932815	0.046554	12.164201	0.184947	0.091372	11.789875	0.092102	0.093620	2.899868	0.854852	0.890627	29.500000	7.460000	34.673685
2076330.499311	0.085589	7.933330	0.046580	12.159755	0.185286	0.091391	11.792047	0.093729	0.093611	2.895622	0.853589	0.889140	29.500000	7.460000	34.673685
2076336.499655	0.096792	7.932433	0.046528	12.157589	0.185326	0.091401	11.790062	0.092868	0.093619	2.891347	0.852246	0.887643	29.500000	7.460000	34.673685
2076342.499998	0.065520	7.932158	0.046510	12.153238	0.185310	0.091420	11.789657	0.093815	0.093621	2.887075	0.852325	0.886146	29.500000	7.460000	34.673685
2076348.499341	0.042025	7.931407	0.046467	12.151148	0.185468	0.091429	11.787146	0.094305	0.093632	2.883012	0.851062	0.884700	29.500000	7.460000	34.673685
2076354.499684	0.001863	7.932781	0.046541	12.145988	0.184852	0.091451	11.783665	0.093918	0.093648	2.879006	0.851062	0.883309	29.500000	7.460000	34.673685
2076360.500028	-0.003371	7.931723	0.046480	12.143934	0.184986	0.091460	11.777917	0.095268	0.093674	2.875251	0.849877	0.881973	29.500000	7.460000	34.673685
2076366.499371	0.058564	7.931316	0.046458	12.144569	0.185018	0.091457	11.773524	0.093444	0.093693	2.871675	0.849798	0.880650	29.500000	7.460000	34.673685
2076372.499714	0.043185	7.931650	0.046475	12.142820	0.185144	0.091465	11.773140	0.094905	0.093695	2.867920	0.849798	0.879333	29.500000	7.460000	34.673685
2076378.500057	0.033119	7.931315	0.046454	12.136927	0.184457	0.091491	11.774774	0.091881	0.093688	2.863674	0.849877	0.877864	29.500000	7.460000	34.673685
2076384.499400	0.060909	7.930362	0.046400	12.138924	0.184812	0.091482	11.771410	0.091960	0.093703	2.859526	0.850983	0.876314	29.500000	7.460000	34.673685
2076390.499743	0.003663	7.931585	0.046469	12.137570	0.185894	0.091488	11.771201	0.092197	0.093704	2.855374	0.852325	0.874852	29.500000	7.460000	34.673685
2076396.500087	0.027703	7.931770	0.046480	12.138545	0.184978	0.091483	11.769389	0.094202	0.093712	2.851316	0.853510	0.873372	29.500000	7.460000	34.673685
2076402.499430	0.039332	7.932935	0.046544	12.135922	0.185144	0.091495	11.769092	0.093665	0.093713	2.847381	0.854694	0.871978	29.500000	7.460000	34.673685
2076408.499773	0.004453	7.932810	0.046538	12.137485	0.185799	0.091488	11.769522	0.093910	0.093711	2.843965	0.856116	0.870703	29.500000	7.460000	34.673685
2076414.500116	0.061541	7.931641	0.046471	12.136679	0.184433	0.091492	11.771867	0.093705	0.093701	2.840693	0.857300	0.869548	29.500000	7.460000	34.673685
2076420.499459	0.026653	7.932186	0.046500	12.133548	0.184141	0.091505	11.773785	0.095055	0.093692	2.837629	0.858643	0.868475	29.500000	7.460000	34.673685
2076426.499803	0.056433	7.931681	0.046470	12.130688	0.184568	0.091518	11.777425	0.093492	0.093676	2.834967	0.860222	0.867530	29.500000	7.460000	34.673685
2076432.499146	0.039617	7.932018	0.046491	12.133116	0.183249	0.091507	11.777020	0.095031	0.093678	2.832681	0.859748	0.866676	29.500000	7.460000	34.673685
2076438.499489	0.095386	7.931154	0.046443	12.135588	0.186012	0.091496	11.774895	0.093657	0.093687	2.830692	0.861012	0.865941	29.500000	7.460000	34.673685
2076444.499832	0.092221	7.931914	0.046486	12.134330	0.184947	0.091502	11.774864	0.093286	0.093687	2.828881	0.862355	0.865300	29.500000	7.460000	34.673685
2076450.499175	-0.002518	7.930706	0.046418	12.134755	0.186012	0.091500	11.774871	0.094052	0.093687	2.827476	0.864724	0.864786	29.500000	7.460000	34.673685
2076456.499518	-0.004807	7.930245	0.046392	12.135820	0.184173	0.091495	11.774271	0.093073	0.093690	2.826464	0.865908	0.864408	29.500000	7.460000	34.673685
2076462.499862	-0.001981	7.929361	0.046343	12.136512	0.186352	0.091492	11.774603	0.093263	0.093688	2.825636	0.867330	0.864100	29.500000	7.460000	34.673685
2076468.499205	0.035803	7.928077	0.046271	12.138998	0.184923	0.091482	11.772052	0.093729	0.093700	2.825061	0.868514	0.863864	29.500000	7.460000	34.673685
2076474.499548	0.065607	7.926490	0.046182	12.139901	0.185428	0.091478	11.773909	0.095189	0.093691	2.824630	0.869699	0.863695	29.500000	7.460000	34.673685
2076480.499891	0.011203	7.924636	0.046078	12.140904	0.183470	0.091473	11.774925	0.094005	0.093687	2.824411	0.872858	0.863607	29.500000	7.460000	34.673685
2076486.499234	0.028603	7.923014	0.045987	12.143473	0.185049	0.091462	11.773790	0.095015	0.093692	2.824529	0.874832	0.863621	29.500000	7.460000	34.673685
2076492.499578	0.033301	7.922453	0.045957	12.145520	0.185555	0.091453	11.774520	0.093144	0.093689	2.824845	0.878544	0.863713	29.500000	7.460000	34.673685
2076498.499921	0.092473	7.920693	0.045856	12.144477	0.185294	0.091458	11.776542	0.093650	0.093680	2.825213	0.881071	0.863859	29.500000	7.460000	34.673685
2076504.501264	-0.011114	7.920374	0.045839	12.145562	0.185231	0.091453	11.778917	0.093365	0.093669	2.825824	0.883519	0.864069	29.500000	7.460000	34.673685
2076510.499607	0.068078	7.921030	0.045876	12.144742	0.184978	0.091457	11.782491	0.093184	0.093653	2.826520	0.885414	0.864331	29.500000	7.460000	34.673685
2076516.499950	0.070146	7.921255	0.045890	12.147787	0.184891	0.091443	11.783305	0.093405	0.093649	2.827541	0.887388	0.864661	29.500000	7.460000	34.673685
2076522.499293	0.066349	7.920122	0.045825	12.145596	0.185128	0.091453	11.784216	0.094250	0.093645	2.828442	0.891100	0.865019	29.500000	7.460000	34.673685
2076528.499637	0.076304	7.919869	0.045814	12.151534	0.185618	0.091427	11.781623	0.093847	0.093657	2.829805	0.893627	0.865445	29.500000	7.460000	34.673685
2076534.499979	0.031248	7.921585	0.045910	12.149420	0.185515	0.091436	11.781289	0.095118	0.093658	2.831066	0.896154	0.865926	29.500000	7.460000	34.673685
2076540.499323	-0.007736	7.922043	0.045935	12.149263	0.184789	0.091437	11.777646	0.093847	0.093675	2.832468	0.898444	0.866436	29.500000	7.460000	34.673685
2076546.499666	0.040027	7.920406	0.045845	12.152700	0.184133	0.091422	11.776221	0.093334	0.093681	2.834059	0.900972	0.866973	29.500000	7.460000	34.673685
2076552.502009	0.055667	7.917990	0.045707	12.152130	0.184141	0.091424	11.776080	0.095473	0.093682	2.835565	0.902314	0.867515	29.500000	7.460000	34.673685
2076558.499352	-0.005944	7.918537	0.045739	12.153429	0.184923	0.091419	11.775511	0.094723	0.093684	2.837185	0.904762	0.868086	29.500000	7.460000	34.673685
2076564.499696	0.041654	7.917285	0.045669	12.155016	0.184773	0.091412	11.776646	0.092631	0.093679	2.838800	0.906026	0.868662	29.500000	7.460000	34.673685
2076570.501039	0.083726	7.916342	0.045618	12.158314	0.185002	0.091398	11.772961	0.092702	0.093696	2.840505	0.907289	0.869242	29.500000	7.460000	34.673685
2076576.499382	0.056496	7.915997	0.045601	12.162371	0.185634	0.091380	11.773277	0.094005	0.093694	2.842301	0.910448	0.869846	29.500000	7.460000	34.673685
2076582.499725	0.064486	7.914672	0.045524	12.159280	0.185152	0.091393	11.775463	0.094092	0.093684	2.844024	0.912264	0.870507	29.500000	7.460000	34.673685
2076588.500068	-0.010782	7.913868	0.045476	12.155922	0.187110	0.091408	11.778470	0.093389	0.093671	2.845998	0.913449	0.871261	29.500000	7.460000	34.673685
2076594.499412	0.080978	7.912847	0.045419	12.155863	0.184655	0.091408	11.781799	0.093492	0.093656	2.848332	0.914713	0.872093	29.500000	7.460000	34.673685
2076600.499754	0.076557	7.910707	0.045300	12.159717	0.184726	0.091392	11.778126	0.093484	0.093673	2.850971	0.915976	0.873020	29.500000	7.460000	34.673685
2076606.500098	0.016658	7.910972	0.045314	12.158523	0.185302	0.091397	11.779469	0.094929	0.093667	2.853790	0.918424	0.874038	29.500000	7.460000	34.673685
2076612.499441	0.083284	7.911055	0.045317	12.155453	0.183502	0.091410	11.782589	0.093105	0.093653	2.856912	0.920162	0.875204	29.500000	7.460000	34.673685
2076618.499784	-0.008107	7.910960	0.045310	12.152262	0.185034	0.091424	11.788005	0.093271	0.093629	2.860344	0.922136	0.876482	29.500000	7.460000	34.673685
2076624.500127	0.049864	7.912443	0.045392	12.150086	0.185049	0.091433	11.788775	0.095126	0.093625	2.864017	0.923478	0.877837	29.500000	7.460000	34.673685
2076630.499471	-0.001989	7.911124	0.045318	12.150003	0.186707	0.091434	11.790503	0.093697	0.093617	2.867812	0.926084	0.879211	29.500000	7.460000	34.673685
2076636.499814	0.052288	7.911100	0.045316	12.149372	0.186841	0.091436	11.792143	0.092765	0.093610	2.871698	0.928533	0.880650	29.500000	7.460000	34.673685
2076642.499157	0.090342	7.910204	0.045263	12.146019	0.185073	0.091451	11.793928	0.092544	0.093602	2.875820	0.929717	0.882181	29.500000	7.460000	34.673685
2076648.499500	-0.011461	7.910315	0.045269	12.144915	0.185089	0.091456	11.797221	0.093215	0.093587	2.880142	0.932244	0.883760	29.500000	7.460000	34.673685
2076654.499843	-0.012393	7.908579	0.045171	12.145898	0.185784	0.091452	11.795798	0.093515	0.093594	2.884537	0.933429	0.885339	29.500000	7.460000	34.673685
2076660.499187	-0.015542	7.907005	0.045082	12.144620	0.184962	0.091457	11.796404	0.093342	0.093591	2.889106	0.934455	0.886981	29.500000	7.460000	34.673685
2076666.499530	-0.014066	7.903297	0.044873	12.148254	0.183076	0.091441	11.796350	0.094723	0.093591	2.894005	0.937219	0.888712	29.500000	7.460000	34.673685
2076672.499873	0.039380	7.901897	0.044797	12.152669	0.184939	0.091422	11.797355	0.094550	0.093587	2.899028	0.938404	0.890479	29.500000	7.460000	34.673685
2076678.499216	0.085084	7.900397	0.044710	12.148648	0.185610	0.091440	11.802706	0.093136	0.093563	2.903862	0.939668	0.892275	29.500000	7.460000	34.673685
2076684.499559	0.032424	7.899402	0.044653	12.148176	0.184797	0.091442	11.804569	0.094494	0.093555	2.908834	0.942905	0.894111	29.500000	7.460000	34.673685
2076690.499902	0.055375	7.896216	0.044474	12.150199	0.184655	0.091433	11.807360	0.093657	0.093542	2.914023	0.944722	0.895966	29.500000	7.460000	34.673685
2076696.499246	-0.015834	7.895405	0.044429	12.151640	0.185231	0.091427	11.807566	0.094510	0.093541	2.919219	0.945985	0.897831	29.500000	7.460000	34.673685
2076702.499589	0.093823	7.892593	0.044271	12.153372	0.184062	0.091419	11.807078	0.094131	0.093544	2.924439	0.947328	0.899700	29.500000	7.460000	34.673685
2076708.499932	-0.012969	7.891878	0.044231	12.155597	0.183841	0.091409	11.808580	0.093626	0.093537	2.929505	0.948591	0.901477	29.500000	7.460000	34.673685
2076714.499275	0.069673	7.889610	0.044102	12.154537	0.184678	0.091414	11.810698	0.094415	0.093527	2.934554	0.949776	0.903317	29.500000	7.460000	34.673685
2076720.499618	0.043090	7.887748	0.043997	12.154430	0.182847	0.091415	11.811799	0.093523	0.093522	2.939607	0.950961	0.905178	29.500000	7.460000	34.673685
2076726.499961	0.097187	7.886324	0.043916	12.154006	0.185673	0.091416	11.812392	0.093365	0.093520	2.944594	0.953567	0.906988	29.500000	7.460000	34.673685
2076732.499305	0.000229	7.886159	0.043907	12.154483	0.184102	0.091414	11.814837	0.093744	0.093509	2.949784	0.953488	0.908830	29.500000	7.460000	34.673685
2076738.499648	0.047804	7.885533	0.043872	12.155637	0.186913	0.091409	11.817745	0.092513	0.093496	2.954922	0.954830	0.910707	29.500000	7.460000	34.673685
2076744.499991	0.044377	7.884834	0.043832	12.153811	0.185365	0.091417	11.819521	0.093136	0.093488	2.959994	0.956173	0.912565	29.500000	7.460000	34.673685
2076750.499334	0.005676	7.884490	0.043809	12.148844	0.184576	0.091439	11.826366	0.094510	0.093458	2.965049	0.957278	0.914451	29.500000	7.460000	34.673685
2076756.499677	0.073115	7.883505	0.043753	12.148270	0.185215	0.091441	11.831626	0.092063	0.093434	2.970213	0.959095	0.916327	29.500000	7.460000	34.673685
2076762.500021	-0.012921	7.882634	0.043704	12.147678	0.184126	0.091444	11.834994	0.093507	0.093419	2.975175	0.959726	0.918130	29.500000	7.460000	34.673685
2076768.499363	0.074789	7.880129	0.043564	12.151095	0.185160	0.091429	11.836614	0.093405	0.093412	2.980437	0.961069	0.919964	29.500000	7.460000	34.673685
2076774.499707	0.080678	7.878645	0.043482	12.155284	0.184489	0.091411	11.837593	0.093365	0.093408	2.985727	0.962174	0.921830	29.500000	7.460000	34.673685
2076780.500050	-0.012203	7.877278	0.043405	12.155664	0.184891	0.091409	11.840508	0.093002	0.093395	2.990900	0.963359	0.923698	29.500000	7.460000	34.673685
2076786.499393	0.030135	7.875336	0.043296	12.157472	0.184670	0.091401	11.844308	0.092836	0.093378	2.996048	0.964623	0.925541	29.500000	7.460000	34.673685
2076792.499736	0.028690	7.873970	0.043219	12.159039	0.182981	0.091394	11.846534	0.093073	0.093368	3.000910	0.966044	0.927312	29.500000	7.460000	34.673685
2076798.500080	0.031335	7.872774	0.043155	12.164064	0.183060	0.091373	11.845898	0.093531	0.093371	3.005918	0.966044	0.929038	29.500000	7.460000	34.673685
2076804.499423	0.039088	7.870657	0.043035	12.164708	0.182610	0.091370	11.850016	0.094684	0.093352	3.010690	0.967308	0.930758	29.500000	7.460000	34.673685
2076810.499766	0.072144	7.869565	0.042974	12.166409	0.184386	0.091363	11.850524	0.093097	0.093350	3.015313	0.968492	0.932439	29.500000	7.460000	34.673685
2076816.500109	0.004239	7.868701	0.042923	12.162212	0.183976	0.091381	11.856479	0.093602	0.093324	3.019789	0.969677	0.934107	29.500000	7.460000	34.673685
2076822.499452	0.038567	7.867596	0.042857	12.156139	0.186991	0.091407	11.860342	0.091897	0.093307	3.024172	0.970940	0.935763	29.500000	7.460000	34.673685
2076828.499795	0.054530	7.866335	0.042787	12.158197	0.185768	0.091398	11.859772	0.093579	0.093309	3.028707	0.972125	0.937354	29.500000	7.460000	34.673685
2076834.499139	-0.016979	7.864439	0.042680	12.159140	0.184497	0.091394	11.860220	0.093500	0.093307	3.033063	0.972283	0.938920	29.500000	7.460000	34.673685
2076840.499482	0.027103	7.862259	0.042559	12.162868	0.185160	0.091378	11.860500	0.093231	0.093306	3.037419	0.973309	0.940453	29.500000	7.460000	34.673685
2076846.499825	-0.004878	7.860463	0.042458	12.163474	0.185420	0.091375	11.863845	0.093255	0.093291	3.041422	0.974415	0.941920	29.500000	7.460000	34.673685
2076852.499168	0.033182	7.857518	0.042290	12.163000	0.184173	0.091377	11.868074	0.093034	0.093272	3.045492	0.974415	0.943398	29.500000	7.460000	34.673685
2076858.499511	0.004966	7.857969	0.042315	12.160398	0.184789	0.091389	11.870720	0.094534	0.093260	3.049338	0.976547	0.944820	29.500000	7.460000	34.673685
2076864.499855	0.079786	7.856142	0.042211	12.161223	0.184773	0.091385	11.868022	0.093152	0.093272	3.053298	0.975679	0.946220	29.500000	7.460000	34.673685
2076870.499198	0.088297	7.854611	0.042123	12.158232	0.186368	0.091398	11.869365	0.094842	0.093266	3.056836	0.976863	0.947558	29.500000	7.460000	34.673685
2076876.499541	0.068986	7.852847	0.042021	12.154768	0.182547	0.091413	11.873252	0.093673	0.093249	3.060538	0.976863	0.948937	29.500000	7.460000	34.673685
2076882.499884	-0.008296	7.852595	0.042007	12.153783	0.185199	0.091417	11.873605	0.091802	0.093248	3.064246	0.978048	0.950290	29.500000	7.460000	34.673685
2076888.499227	0.068725	7.852799	0.042021	12.158672	0.186834	0.091396	11.872797	0.093357	0.093251	3.068003	0.978127	0.951571	29.500000	7.460000	34.673685
2076894.499570	0.066349	7.851687	0.041956	12.155887	0.186131	0.091408	11.874506	0.093744	0.093244	3.071370	0.979232	0.952844	29.500000	7.460000	34.673685
2076900.499914	-0.008485	7.849371	0.041825	12.156220	0.185247	0.091407	11.873078	0.094992	0.093250	3.074958	0.980417	0.954139	29.500000	7.460000	34.673685
2076906.499257	0.092394	7.847914	0.041746	12.162277	0.185405	0.091380	11.867702	0.095276	0.093274	3.078681	0.980496	0.955416	29.500000	7.460000	34.673685
2076912.499600	0.092821	7.847487	0.041722	12.161020	0.184820	0.091386	11.867520	0.093365	0.093275	3.082066	0.980180	0.956655	29.500000	7.460000	34.673685
2076918.499943	0.094092	7.845980	0.041637	12.162481	0.186660	0.091380	11.866791	0.093097	0.093278	3.085293	0.981601	0.957806	29.500000	7.460000	34.673685
2076924.499286	0.009766	7.844261	0.041540	12.162418	0.183636	0.091380	11.865017	0.093413	0.093286	3.088600	0.982707	0.958984	29.500000	7.460000	34.673685
2076930.499629	-0.005320	7.844090	0.041528	12.159273	0.184433	0.091393	11.868575	0.092386	0.093270	3.091649	0.982707	0.960143	29.500000	7.460000	34.673685
2076936.499973	0.076194	7.843275	0.041481	12.157261	0.184560	0.091402	11.868970	0.093192	0.093268	3.094749	0.984050	0.961288	29.500000	7.460000	34.673685
2076942.499316	0.005526	7.843290	0.041480	12.154871	0.185278	0.091413	11.870759	0.092892	0.093260	3.097776	0.983971	0.962410	29.500000	7.460000	34.673685
2076948.499659	-0.017752	7.840069	0.041297	12.152941	0.185191	0.091421	11.871732	0.093105	0.093256	3.100698	0.984050	0.963489	29.500000	7.460000	34.673685
2076954.500002	0.065512	7.837681	0.041163	12.154508	0.183944	0.091414	11.868027	0.093484	0.093272	3.103695	0.984997	0.964556	29.500000	7.460000	34.673685
2076960.499345	0.088202	7.835368	0.041032	12.155580	0.182389	0.091410	11.865882	0.095110	0.093282	3.106486	0.985155	0.965553	29.500000	7.460000	34.673685
2076966.499689	0.068670	7.831647	0.040821	12.155102	0.184291	0.091412	11.866004	0.093926	0.093281	3.109235	0.986419	0.966553	29.500000	7.460000	34.673685
2076972.500032	0.056180	7.831605	0.040818	12.153966	0.185262	0.091417	11.866799	0.092039	0.093278	3.111964	0.987524	0.967554	29.500000	7.460000	34.673685
2076978.499375	0.083362	7.830774	0.040770	12.150652	0.182736	0.091431	11.869063	0.092568	0.093268	3.114433	0.988709	0.968485	29.500000	7.460000	34.673685
2076984.499718	0.081215	7.830254	0.040740	12.150313	0.184505	0.091432	11.874168	0.092797	0.093245	3.117113	0.990051	0.969459	29.500000	7.460000	34.673685
2076990.500062	0.036861	7.828932	0.040664	12.148013	0.186510	0.091442	11.875737	0.091573	0.093238	3.119692	0.989972	0.970419	29.500000	7.460000	34.673685
2076996.499404	0.074031	7.827983	0.040608	12.145017	0.184118	0.091455	11.878108	0.093113	0.093228	3.122183	0.991236	0.971354	29.500000	7.460000	34.673685
2077002.500748	0.083599	7.826175	0.040504	12.141741	0.183976	0.091470	11.879269	0.092852	0.093222	3.124642	0.992421	0.972282	29.500000	7.460000	34.673685
2077008.500091	0.066799	7.826131	0.040500	12.138749	0.184726	0.091483	11.883425	0.094400	0.093204	3.127082	0.993763	0.973184	29.500000	7.460000	34.673685
2077014.499434	-0.010261	7.826822	0.040540	12.140595	0.185112	0.091475	11.885173	0.093634	0.093196	3.129651	0.994948	0.974093	29.500000	7.460000	34.673685
2077020.499777	0.062686	7.826202	0.040505	12.140309	0.184599	0.091476	11.890456	0.091226	0.093173	3.132134	0.996211	0.974995	29.500000	7.460000	34.673685
2077026.500121	0.018182	7.825985	0.040493	12.141107	0.184283	0.091472	11.894345	0.093247	0.093156	3.134568	0.997554	0.975882	29.500000	7.460000	34.673685
2077032.499464	0.053646	7.824836	0.040429	12.142498	0.184276	0.091466	11.893496	0.092647	0.093159	3.137178	1.000476	0.976811	29.500000	7.460000	34.673685
2077038.499807	0.058912	7.824967	0.040436	12.142769	0.184252	0.091465	11.895445	0.091763	0.093151	3.139711	1.001186	0.977709	29.500000	7.460000	34.673685
2077044.499150	0.031587	7.824274	0.040397	12.142643	0.185452	0.091466	11.893521	0.092852	0.093159	3.142226	1.002450	0.978637	29.500000	7.460000	34.673685
2077050.499493	-0.016458	7.823724	0.040366	12.143032	0.184568	0.091464	11.894469	0.095000	0.093155	3.144832	1.004345	0.979560	29.500000	7.460000	34.673685
2077056.499836	0.053630	7.823001	0.040324	12.139880	0.184418	0.091478	11.900545	0.091644	0.093128	3.147316	1.005056	0.980495	29.500000	7.460000	34.673685
2077062.501180	0.078144	7.822816	0.040312	12.138412	0.185389	0.091484	11.902831	0.092955	0.093118	3.149896	1.007504	0.981446	29.500000	7.460000	34.673685
2077068.502523	0.017171	7.822345	0.040284	12.136124	0.184536	0.091494	11.903445	0.093105	0.093115	3.152437	1.008610	0.982407	29.500000	7.460000	34.673685
2077074.499866	0.038709	7.821099	0.040215	12.137758	0.182247	0.091487	11.905218	0.093310	0.093107	3.155155	1.010031	0.983357	29.500000	7.460000	34.673685
2077080.499209	0.033364	7.819066	0.040102	12.141746	0.185049	0.091470	11.905362	0.093500	0.093107	3.157981	1.011216	0.984334	29.500000	7.460000	34.673685
2077086.499552	-0.019599	7.817719	0.040025	12.139862	0.184228	0.091478	11.905564	0.091873	0.093106	3.160617	1.012400	0.985309	29.500000	7.460000	34.673685
2077092.499896	-0.021430	7.816723	0.039969	12.141797	0.185041	0.091469	11.905096	0.091778	0.093108	3.163358	1.013822	0.986280	29.500000	7.460000	34.673685
2077098.499238	0.064691	7.814282	0.039832	12.142418	0.184489	0.091467	11.908077	0.091668	0.093095	3.165932	1.013743	0.987204	29.500000	7.460000	34.673685
2077104.499582	0.053141	7.812685	0.039740	12.139763	0.183676	0.091478	11.913881	0.091984	0.093069	3.168483	1.015085	0.988174	29.500000	7.460000	34.673685
2077110.499925	0.067454	7.812187	0.039712	12.140200	0.183999	0.091476	11.916003	0.092963	0.093060	3.171205	1.016507	0.989138	29.500000	7.460000	34.673685
2077116.499268	0.044448	7.812411	0.039724	12.140142	0.184623	0.091477	11.919201	0.092623	0.093045	3.173806	1.018244	0.990097	29.500000	7.460000	34.673685
2077122.499611	-0.014105	7.811445	0.039669	12.139519	0.184378	0.091479	11.921349	0.093373	0.093036	3.176455	1.017612	0.991062	29.500000	7.460000	34.673685
2077128.499955	0.077339	7.809151	0.039541	12.143347	0.184868	0.091463	11.918344	0.092947	0.093049	3.179206	1.018876	0.991998	29.500000	7.460000	34.673685
2077134.499298	-0.012479	7.807550	0.039452	12.145831	0.184583	0.091452	11.916299	0.092592	0.093058	3.181880	1.020139	0.992937	29.500000	7.460000	34.673685
2077140.499641	0.003174	7.806680	0.039404	12.147436	0.184512	0.091445	11.915926	0.093279	0.093060	3.184565	1.020139	0.993891	29.500000	7.460000	34.673685
2077146.499984	0.053528	7.805664	0.039349	12.152492	0.184876	0.091423	11.912050	0.094794	0.093077	3.187316	1.020139	0.994828	29.500000	7.460000	34.673685
2077152.499327	0.093231	7.805189	0.039323	12.153500	0.184544	0.091419	11.912529	0.093231	0.093075	3.189892	1.020061	0.995749	29.500000	7.460000	34.673685
2077158.499671	0.063941	7.804702	0.039296	12.154336	0.186699	0.091415	11.912666	0.093263	0.093074	3.192390	1.018955	0.996644	29.500000	7.460000	34.673685
2077164.500014	-0.021265	7.803949	0.039251	12.150576	0.184323	0.091431	11.913899	0.093444	0.093069	3.194674	1.018955	0.997514	29.500000	7.460000	34.673685
2077170.499357	-0.019907	7.801966	0.039140	12.152279	0.183778	0.091424	11.913877	0.092663	0.093069	3.197078	1.018955	0.998364	29.500000	7.460000	34.673685
2077176.499700	0.092094	7.801117	0.039093	12.155140	0.183478	0.091411	11.910874	0.093223	0.093082	3.199513	1.019034	0.999213	29.500000	7.460000	34.673685
2077182.500043	0.036909	7.801231	0.039099	12.153557	0.184489	0.091418	11.914562	0.092536	0.093066	3.201788	1.018876	1.000054	29.500000	7.460000	34.673685
2077188.499386	-0.019947	7.802382	0.039163	12.151369	0.186257	0.091428	11.915376	0.093002	0.093062	3.203942	1.019034	1.000859	29.500000	7.460000	34.673685
2077194.499730	0.087973	7.802365	0.039161	12.150730	0.184899	0.091431	11.919160	0.092860	0.093046	3.206075	1.017691	1.001651	29.500000	7.460000	34.673685
2077200.500073	0.032140	7.799233	0.038985	12.152387	0.184607	0.091423	11.917771	0.094384	0.093052	3.208188	1.016349	1.002384	29.500000	7.460000	34.673685
2077206.499416	0.046319	7.798448	0.038941	12.152728	0.186762	0.091422	11.915932	0.091984	0.093060	3.210123	1.015164	1.003092	29.500000	7.460000	34.673685
2077212.499759	0.072420	7.798255	0.038931	12.155088	0.184173	0.091412	11.914507	0.093065	0.093066	3.212050	1.013822	1.003762	29.500000	7.460000	34.673685
2077218.500102	-0.020570	7.796188	0.038814	12.155543	0.184205	0.091410	11.914654	0.093192	0.093066	3.213861	1.012479	1.004412	29.500000	7.460000	34.673685
2077224.503446	0.074946	7.795645	0.038783	12.154354	0.184789	0.091415	11.916211	0.091723	0.093059	3.215505	1.012479	1.005010	29.500000	7.460000	34.673685
2077230.499789	0.037335	7.793544	0.038661	12.149534	0.184260	0.091436	11.918915	0.092797	0.093047	3.217000	1.011216	1.005607	29.500000	7.460000	34.673685
2077236.499132	0.086702	7.792576	0.038611	12.157544	0.184149	0.091401	11.922049	0.092710	0.093033	3.218772	1.010900	1.006156	29.500000	7.460000	34.673685
2077242.499475	0.089213	7.792474	0.038604	12.155540	0.184394	0.091410	11.923795	0.093286	0.093025	3.220145	1.008768	1.006676	29.500000	7.460000	34.673685
2077248.499818	-0.015234	7.789946	0.038463	12.158540	0.184347	0.091397	11.923082	0.092860	0.093028	3.221609	1.008689	1.007171	29.500000	7.460000	34.673685
2077254.499161	0.057688	7.789782	0.038454	12.160204	0.184252	0.091389	11.921800	0.092884	0.093034	3.222957	1.007504	1.007640	29.500000	7.460000	34.673685
2077260.499505	0.092663	7.788422	0.038378	12.161181	0.182926	0.091385	11.924143	0.091265	0.093024	3.224173	1.006319	1.008069	29.500000	7.460000	34.673685
2077266.499848	0.066112	7.787429	0.038322	12.162830	0.183636	0.091378	11.925831	0.094486	0.093016	3.225292	1.004898	1.008455	29.500000	7.460000	34.673685
2077272.499191	0.041646	7.786008	0.038245	12.167496	0.184205	0.091358	11.927129	0.091913	0.093010	3.226444	1.003713	1.008818	29.500000	7.460000	34.673685
2077278.499534	0.089915	7.783467	0.038099	12.164484	0.184741	0.091371	11.932799	0.094526	0.092985	3.227225	1.003634	1.009141	29.500000	7.460000	34.673685
2077284.499877	-0.019631	7.782825	0.038061	12.162045	0.185555	0.091381	11.936209	0.092773	0.092970	3.227970	1.002371	1.009438	29.500000	7.460000	34.673685
2077290.499220	0.084989	7.781720	0.037998	12.161544	0.183676	0.091384	11.938893	0.094771	0.092958	3.228644	1.001186	1.009683	29.500000	7.460000	34.673685
2077296.499564	0.055478	7.782908	0.038063	12.155669	0.184252	0.091409	11.947596	0.090942	0.092920	3.229048	1.001186	1.009897	29.500000	7.460000	34.673685
2077302.499907	0.025919	7.782508	0.038038	12.152108	0.184394	0.091425	11.953587	0.092521	0.092893	3.229379	0.998738	1.010057	29.500000	7.460000	34.673685
2077308.499250	-0.006236	7.780598	0.037930	12.153032	0.182326	0.091421	11.954277	0.092813	0.092890	3.229700	0.997554	1.010163	29.500000	7.460000	34.673685
2077314.499593	0.086355	7.778058	0.037788	12.155846	0.183897	0.091408	11.955256	0.093950	0.092886	3.229938	0.996290	1.010217	29.500000	7.460000	34.673685
2077320.499937	0.072262	7.775793	0.037660	12.155549	0.183786	0.091410	11.955927	0.093050	0.092883	3.229938	0.995027	1.010220	29.500000	7.460000	34.673685
2077326.499279	0.012324	7.773901	0.037552	12.154854	0.183455	0.091413	11.956585	0.092876	0.092880	3.229806	0.993763	1.010179	29.500000	7.460000	34.673685
2077332.499623	-0.002487	7.773131	0.037508	12.153960	0.184741	0.091417	11.954107	0.092465	0.092891	3.229484	0.992421	1.010072	29.500000	7.460000	34.673685
2077338.499966	-0.016639	7.772585	0.037480	12.159768	0.183573	0.091391	11.952990	0.092694	0.092896	3.229199	0.991236	1.009901	29.500000	7.460000	34.673685
2077344.499309	0.031698	7.771580	0.037424	12.160994	0.185073	0.091386	11.955090	0.094581	0.092887	3.228664	0.991394	1.009693	29.500000	7.460000	34.673685
2077350.499652	0.084278	7.770501	0.037362	12.158215	0.184362	0.091398	11.960019	0.090800	0.092865	3.227912	0.990446	1.009452	29.500000	7.460000	34.673685
2077356.499995	0.090823	7.770511	0.037363	12.159717	0.184560	0.091392	11.965161	0.091313	0.092842	3.227208	0.989972	1.009179	29.500000	7.460000	34.673685
2077362.499339	0.084807	7.769335	0.037295	12.156445	0.184094	0.091406	11.967684	0.092213	0.092831	3.226226	0.988788	1.008861	29.500000	7.460000	34.673685
2077368.499682	0.070912	7.768268	0.037236	12.159059	0.184126	0.091394	11.969666	0.092347	0.092822	3.225282	0.988788	1.008489	29.500000	7.460000	34.673685
2077374.500025	0.080039	7.767084	0.037169	12.159369	0.184078	0.091393	11.972194	0.093113	0.092811	3.224180	0.988788	1.008085	29.500000	7.460000	34.673685
2077380.499368	0.003355	7.767553	0.037196	12.160780	0.186178	0.091387	11.975253	0.093286	0.092798	3.223079	0.988709	1.007670	29.500000	7.460000	34.673685
2077386.499711	0.027893	7.767543	0.037191	12.151393	0.183391	0.091428	11.979877	0.090878	0.092777	3.221544	0.988788	1.007222	29.500000	7.460000	34.673685
2077392.500054	0.075183	7.767221	0.037173	12.153194	0.184307	0.091420	11.980045	0.094281	0.092776	3.220305	0.989972	1.006753	29.500000	7.460000	34.673685
2077398.499398	0.027127	7.766440	0.037132	12.157643	0.183210	0.091401	11.979334	0.092821	0.092780	3.219133	0.990367	1.006285	29.500000	7.460000	34.673685
2077404.499741	0.009908	7.765638	0.037086	12.158472	0.184039	0.091397	11.981297	0.091605	0.092771	3.217834	0.991236	1.005806	29.500000	7.460000	34.673685
2077410.500084	0.079162	7.763553	0.036971	12.163669	0.184868	0.091374	11.980249	0.091281	0.092775	3.216641	0.992263	1.005306	29.500000	7.460000	34.673685
2077416.499427	0.081562	7.762959	0.036936	12.159327	0.183849	0.091393	11.981855	0.092442	0.092768	3.215230	0.993842	1.004846	29.500000	7.460000	34.673685
2077422.499770	0.077433	7.761854	0.036872	12.157603	0.183912	0.091401	11.982723	0.091676	0.092765	3.213968	0.997475	1.004410	29.500000	7.460000	34.673685
2077428.500113	0.029345	7.762762	0.036923	12.156417	0.184473	0.091406	11.981969	0.092710	0.092768	3.212857	0.999923	1.004028	29.500000	7.460000	34.673685
2077434.499457	0.088944	7.763419	0.036961	12.158896	0.186399	0.091395	11.980945	0.092584	0.092772	3.211962	1.002371	1.003676	29.500000	7.460000	34.673685
2077440.499800	0.007800	7.762787	0.036925	12.157479	0.184718	0.091401	11.983204	0.091352	0.092762	3.211077	1.006319	1.003367	29.500000	7.460000	34.673685
2077446.499143	0.051664	7.762023	0.036883	12.161575	0.182199	0.091383	11.980316	0.094415	0.092775	3.210530	1.009873	1.003126	29.500000	7.460000	34.673685
2077452.499486	0.045672	7.762655	0.036922	12.166153	0.184110	0.091364	11.977835	0.092971	0.092786	3.210225	1.013901	1.002961	29.500000	7.460000	34.673685
2077458.499829	0.030545	7.764223	0.037012	12.168441	0.184181	0.091354	11.979661	0.093697	0.092778	3.210144	1.018876	1.002908	29.500000	7.460000	34.673685
2077464.499173	0.091534	7.764110	0.037006	12.169087	0.183218	0.091351	11.981291	0.093713	0.092771	3.210268	1.024088	1.002945	29.500000	7.460000	34.673685
2077470.499516	0.018324	7.764697	0.037039	12.169335	0.184441	0.091350	11.986401	0.094123	0.092748	3.210630	1.028116	1.003076	29.500000	7.460000	34.673685
2077476.499859	0.050741	7.765006	0.037057	12.169195	0.183620	0.091350	11.990145	0.092071	0.092732	3.211186	1.031195	1.003276	29.500000	7.460000	34.673685
2077482.499202	0.019690	7.763483	0.036971	12.170592	0.182460	0.091344	11.992563	0.091013	0.092721	3.212030	1.036171	1.003566	29.500000	7.460000	34.673685
2077488.499546	0.086520	7.764099	0.037007	12.171939	0.186249	0.091339	11.993432	0.092647	0.092717	3.213126	1.039961	1.003954	29.500000	7.460000	34.673685
2077494.499888	-0.011248	7.763212	0.036958	12.174001	0.183889	0.091330	11.993590	0.093144	0.092717	3.214502	1.044858	1.004421	29.500000	7.460000	34.673685
2077500.499232	0.073502	7.762470	0.036918	12.179260	0.183905	0.091307	11.990898	0.092363	0.092728	3.216314	1.048569	1.005017	29.500000	7.460000	34.673685
2077506.499575	-0.000813	7.763943	0.037002	12.179335	0.185791	0.091306	11.992067	0.093034	0.092723	3.218130	1.054018	1.005673	29.500000	7.460000	34.673685
2077512.499918	0.062662	7.763410	0.036971	12.177476	0.184307	0.091315	11.996526	0.094273	0.092704	3.220276	1.057256	1.006486	29.500000	7.460000	34.673685
2077518.499261	0.021593	7.761415	0.036859	12.178833	0.186115	0.091309	11.997390	0.092836	0.092700	3.222872	1.062231	1.007411	29.500000	7.460000	34.673685
2077524.499604	-0.002273	7.760900	0.036829	12.177845	0.184520	0.091313	11.998996	0.091865	0.092693	3.225594	1.065943	1.008410	29.500000	7.460000	34.673685
2077530.499948	0.093950	7.761223	0.036846	12.176853	0.184078	0.091317	11.998854	0.091115	0.092693	3.228629	1.069655	1.009502	29.500000	7.460000	34.673685
2077536.499291	-0.019994	7.761337	0.036853	12.177405	0.185065	0.091315	11.997841	0.093350	0.092698	3.231800	1.073998	1.010665	29.500000	7.460000	34.673685
2077542.499634	0.079486	7.761826	0.036882	12.179085	0.182633	0.091308	11.997969	0.092134	0.092697	3.235486	1.077157	1.011981	29.500000	7.460000	34.673685
2077548.499977	0.001563	7.761640	0.036869	12.174870	0.184355	0.091326	12.002224	0.092615	0.092679	3.239105	1.079684	1.013340	29.500000	7.460000	34.673685
2077554.499321	0.033711	7.761838	0.036877	12.168981	0.181899	0.091351	12.009306	0.092418	0.092647	3.242965	1.083396	1.014807	29.500000	7.460000	34.673685
2077560.499663	0.060325	7.762280	0.036899	12.162123	0.185618	0.091381	12.016269	0.090728	0.092617	3.247073	1.087186	1.016374	29.500000	7.460000	34.673685
2077566.500007	0.071220	7.762001	0.036884	12.164753	0.184647	0.091370	12.017111	0.092031	0.092613	3.251686	1.090977	1.018015	29.500000	7.460000	34.673685
2077572.499350	0.022035	7.761428	0.036852	12.165056	0.181504	0.091368	12.022362	0.091747	0.092590	3.256548	1.094767	1.019743	29.500000	7.460000	34.673685
2077578.499693	0.071362	7.761245	0.036842	12.166559	0.183162	0.091362	12.024206	0.092836	0.092582	3.261354	1.098479	1.021465	29.500000	7.460000	34.673685
2077584.500036	0.078752	7.763110	0.036949	12.168711	0.183060	0.091353	12.031387	0.091218	0.092550	3.266734	1.101717	1.023388	29.500000	7.460000	34.673685
2077590.499380	-0.011674	7.762827	0.036933	12.168435	0.184007	0.091354	12.037313	0.091715	0.092524	3.272225	1.103691	1.025378	29.500000	7.460000	34.673685
2077596.499722	0.091100	7.763051	0.036945	12.166577	0.183905	0.091362	12.043255	0.092007	0.092498	3.277687	1.105981	1.027411	29.500000	7.460000	34.673685
2077602.500066	0.043193	7.763327	0.036959	12.165473	0.183723	0.091367	12.049068	0.092221	0.092472	3.283524	1.108430	1.029502	29.500000	7.460000	34.673685
2077608.499409	0.063033	7.765167	0.037062	12.163989	0.183202	0.091373	12.055171	0.093444	0.092445	3.289588	1.110957	1.031714	29.500000	7.460000	34.673685
2077614.499752	0.054467	7.765436	0.037078	12.162810	0.184228	0.091378	12.058845	0.091518	0.092429	3.295810	1.114747	1.034019	29.500000	7.460000	34.673685
2077620.500095	0.064059	7.765575	0.037086	12.163966	0.186107	0.091373	12.061048	0.092197	0.092420	3.301914	1.117274	1.036216	29.500000	7.460000	34.673685
2077626.499438	0.091731	7.768033	0.037222	12.158370	0.182444	0.091397	12.067279	0.089986	0.092392	3.308543	1.119722	1.038681	29.500000	7.460000	34.673685
2077632.499782	0.041259	7.767496	0.037189	12.154199	0.183652	0.091416	12.075067	0.092300	0.092358	3.315406	1.122092	1.041214	29.500000	7.460000	34.673685
2077638.500125	-0.023688	7.767626	0.037196	12.152258	0.185823	0.091424	12.078377	0.091739	0.092343	3.322578	1.124540	1.043833	29.500000	7.460000	34.673685
2077644.499468	0.089268	7.768794	0.037260	12.149123	0.183628	0.091438	12.082424	0.092481	0.092326	3.329891	1.127067	1.046518	29.500000	7.460000	34.673685
2077650.499811	0.030198	7.771096	0.037387	12.143301	0.183889	0.091463	12.089882	0.092750	0.092293	3.337240	1.128251	1.049245	29.500000	7.460000	34.673685
2077656.499155	-0.020231	7.772987	0.037494	12.142471	0.183668	0.091466	12.094307	0.091139	0.092274	3.344920	1.130621	1.052036	29.500000	7.460000	34.673685
2077662.499497	0.076123	7.772910	0.037492	12.147450	0.181923	0.091445	12.092346	0.093065	0.092282	3.352884	1.132990	1.054862	29.500000	7.460000	34.673685
2077668.499841	-0.004373	7.773122	0.037505	12.148798	0.186210	0.091439	12.093673	0.090657	0.092276	3.360904	1.134253	1.057701	29.500000	7.460000	34.673685
2077674.499184	0.090042	7.775239	0.037624	12.147716	0.182791	0.091444	12.098545	0.090807	0.092255	3.368821	1.135438	1.060628	29.500000	7.460000	34.673685
2077680.499527	0.078152	7.776794	0.037715	12.152298	0.183518	0.091424	12.099497	0.091652	0.092251	3.377132	1.136701	1.063584	29.500000	7.460000	34.673685
2077686.499870	-0.013837	7.778509	0.037812	12.152071	0.182910	0.091425	12.103494	0.091936	0.092233	3.385229	1.139623	1.066519	29.500000	7.460000	34.673685
2077692.499213	0.060641	7.779695	0.037880	12.154602	0.181544	0.091414	12.105472	0.094005	0.092225	3.393479	1.140255	1.069476	29.500000	7.460000	34.673685
2077698.499557	0.028958	7.777880	0.037778	12.155541	0.184307	0.091410	12.106291	0.092126	0.092221	3.401833	1.141361	1.072489	29.500000	7.460000	34.673685
2077704.499900	0.082320	7.777230	0.037742	12.156813	0.182270	0.091404	12.106365	0.092355	0.092221	3.410241	1.143177	1.075467	29.500000	7.460000	34.673685
2077710.499243	0.082573	7.777379	0.037753	12.161552	0.184355	0.091384	12.102143	0.092386	0.092239	3.418643	1.143730	1.078505	29.500000	7.460000	34.673685
2077716.499586	0.019816	7.777567	0.037762	12.158345	0.183873	0.091398	12.103065	0.093192	0.092235	3.426943	1.145704	1.081546	29.500000	7.460000	34.673685
2077722.499929	0.056820	7.777773	0.037773	12.157706	0.184015	0.091400	12.101702	0.092607	0.092241	3.435278	1.145230	1.084569	29.500000	7.460000	34.673685
2077728.499272	0.013919	7.779010	0.037845	12.160327	0.184291	0.091389	12.102394	0.090736	0.092238	3.443465	1.146257	1.087501	29.500000	7.460000	34.673685
2077734.499616	0.080773	7.778583	0.037818	12.156429	0.185618	0.091406	12.099826	0.092521	0.092249	3.451491	1.147441	1.090402	29.500000	7.460000	34.673685
2077740.499959	-0.019860	7.779225	0.037852	12.151008	0.183076	0.091429	12.100807	0.091060	0.092245	3.459372	1.148547	1.093317	29.500000	7.460000	34.673685
2077746.499302	0.042814	7.779563	0.037870	12.149799	0.184126	0.091435	12.100437	0.092434	0.092247	3.467115	1.148705	1.096181	29.500000	7.460000	34.673685
2077752.499645	0.031927	7.779682	0.037879	12.153850	0.183818	0.091417	12.096674	0.093231	0.092263	3.474945	1.148626	1.098967	29.500000	7.460000	34.673685
2077758.499989	0.084365	7.779517	0.037870	12.153627	0.183833	0.091418	12.094353	0.091700	0.092273	3.482211	1.150521	1.101554	29.500000	7.460000	34.673685
2077764.499331	-0.015716	7.780715	0.037938	12.154939	0.181844	0.091412	12.094370	0.092513	0.092273	3.489290	1.149890	1.104144	29.500000	7.460000	34.673685
2077770.499675	0.044038	7.781248	0.037968	12.154835	0.183826	0.091413	12.092485	0.090989	0.092282	3.495984	1.149890	1.106525	29.500000	7.460000	34.673685
2077776.500018	0.034959	7.780900	0.037950	12.156931	0.182752	0.091404	12.090452	0.092971	0.092290	3.502531	1.149890	1.108911	29.500000	7.460000	34.673685
2077782.499361	0.009300	7.780621	0.037937	12.162766	0.183747	0.091378	12.084764	0.092631	0.092315	3.509350	1.151074	1.111311	29.500000	7.460000	34.673685
2077788.499704	0.070154	7.780033	0.037906	12.166499	0.186360	0.091362	12.082877	0.092355	0.092324	3.515864	1.149811	1.113624	29.500000	7.460000	34.673685
2077794.500048	-0.018092	7.780686	0.037943	12.166770	0.183873	0.091361	12.081869	0.093144	0.092328	3.522030	1.151153	1.115852	29.500000	7.460000	34.673685
2077800.499391	-0.010569	7.780845	0.037953	12.169648	0.183549	0.091348	12.078223	0.092813	0.092344	3.527889	1.149890	1.117903	29.500000	7.460000	34.673685
2077806.499734	-0.020949	7.780445	0.037932	12.171916	0.183210	0.091339	12.077963	0.091889	0.092345	3.533590	1.150363	1.119940	29.500000	7.460000	34.673685
2077812.500077	-0.016623	7.779632	0.037886	12.171360	0.185491	0.091341	12.076949	0.092379	0.092350	3.538792	1.148626	1.121830	29.500000	7.460000	34.673685
2077818.499420	0.080765	7.780056	0.037907	12.165734	0.184426	0.091365	12.080344	0.092363	0.092335	3.543657	1.148547	1.123655	29.500000	7.460000	34.673685
2077824.499763	0.042269	7.781193	0.037972	12.167693	0.184205	0.091357	12.079515	0.093215	0.092338	3.548447	1.148626	1.125395	29.500000	7.460000	34.673685
2077830.500107	0.016563	7.781225	0.037973	12.165885	0.183778	0.091365	12.077632	0.092884	0.092347	3.552847	1.147441	1.127006	29.500000	7.460000	34.673685
2077836.499450	0.050338	7.781471	0.037988	12.167903	0.182870	0.091356	12.075896	0.092465	0.092354	3.557237	1.147441	1.128571	29.500000	7.460000	34.673685
2077842.499793	-0.019418	7.780089	0.037910	12.168704	0.183470	0.091353	12.074987	0.090713	0.092358	3.561284	1.145151	1.130001	29.500000	7.460000	34.673685
2077848.499136	0.008905	7.780552	0.037936	12.167852	0.184347	0.091356	12.075586	0.094139	0.092356	3.564950	1.143888	1.131359	29.500000	7.460000	34.673685
2077854.499479	0.042798	7.783207	0.038086	12.168998	0.182997	0.091351	12.076128	0.091936	0.092353	3.568286	1.145072	1.132553	29.500000	7.460000	34.673685
2077860.499823	0.086047	7.782145	0.038026	12.167710	0.183747	0.091357	12.077601	0.092292	0.092347	3.571514	1.143809	1.133735	29.500000	7.460000	34.673685
2077866.499166	0.069017	7.782599	0.038052	12.168311	0.183857	0.091354	12.080414	0.092094	0.092334	3.574622	1.142624	1.134852	29.500000	7.460000	34.673685
2077872.499509	0.048112	7.782254	0.038034	12.170573	0.185555	0.091344	12.081577	0.092331	0.092329	3.577466	1.141755	1.135837	29.500000	7.460000	34.673685
2077878.499852	-0.017610	7.782772	0.038064	12.172176	0.181536	0.091337	12.080188	0.091644	0.092335	3.580104	1.140176	1.136773	29.500000	7.460000	34.673685
2077884.499195	0.090713	7.782703	0.038061	12.173177	0.183352	0.091333	12.082845	0.091557	0.092324	3.582476	1.140176	1.137620	29.500000	7.460000	34.673685
2077890.499538	-0.022401	7.783645	0.038115	12.174785	0.183305	0.091326	12.082849	0.092142	0.092324	3.584654	1.139149	1.138403	29.500000	7.460000	34.673685
2077896.499882	0.048522	7.784095	0.038142	12.178155	0.184236	0.091312	12.084832	0.094163	0.092315	3.586696	1.137807	1.139102	29.500000	7.460000	34.673685
2077902.499225	0.029290	7.784291	0.038153	12.177381	0.183036	0.091315	12.085040	0.092844	0.092314	3.588415	1.136938	1.139731	29.500000	7.460000	34.673685
2077908.499568	0.060278	7.783294	0.038096	12.176361	0.183683	0.091319	12.085629	0.092307	0.092312	3.589933	1.136780	1.140292	29.500000	7.460000	34.673685
2077914.500911	-0.015100	7.784063	0.038138	12.174618	0.181441	0.091327	12.087314	0.093657	0.092304	3.591295	1.135438	1.140803	29.500000	7.460000	34.673685
2077920.499254	0.019698	7.783884	0.038127	12.173156	0.183091	0.091333	12.088507	0.091818	0.092299	3.592431	1.134253	1.141230	29.500000	7.460000	34.673685
2077926.499598	0.092165	7.784396	0.038156	12.172509	0.183399	0.091336	12.092802	0.092244	0.092280	3.593337	1.133069	1.141564	29.500000	7.460000	34.673685
2077932.499941	0.081610	7.784123	0.038141	12.171900	0.185397	0.091339	12.097843	0.091392	0.092258	3.594033	1.131805	1.141818	29.500000	7.460000	34.673685
2077938.499284	0.036901	7.783371	0.038097	12.170054	0.183676	0.091347	12.098740	0.092015	0.092254	3.594505	1.131805	1.142010	29.500000	7.460000	34.673685
2077944.499627	0.078957	7.783753	0.038119	12.170642	0.185839	0.091344	12.100419	0.092536	0.092247	3.594877	1.130778	1.142138	29.500000	7.460000	34.673685
2077950.499970	-0.001429	7.784100	0.038137	12.167834	0.185539	0.091356	12.105746	0.092710	0.092223	3.595018	1.129752	1.142221	29.500000	7.460000	34.673685
2077956.499313	-0.015463	7.782660	0.038054	12.166458	0.183652	0.091362	12.107422	0.093460	0.092216	3.595028	1.128251	1.142240	29.500000	7.460000	34.673685
2077962.499657	-0.014990	7.783017	0.038075	12.167814	0.185207	0.091356	12.110066	0.092039	0.092204	3.594951	1.127146	1.142196	29.500000	7.460000	34.673685
2077968.500000	-0.017823	7.782580	0.038052	12.170934	0.183683	0.091343	12.108898	0.092450	0.092210	3.594767	1.126988	1.142093	29.500000	7.460000	34.673685
2077974.499343	0.030040	7.782282	0.038037	12.173273	0.183676	0.091333	12.109027	0.092213	0.092209	3.594422	1.125803	1.141940	29.500000	7.460000	34.673685
2077980.499686	0.078057	7.782046	0.038025	12.175691	0.183360	0.091322	12.112110	0.091518	0.092195	3.593917	1.124619	1.141729	29.500000	7.460000	34.673685
2077986.500030	0.008795	7.782187	0.038033	12.175514	0.181260	0.091323	12.116208	0.091905	0.092177	3.593219	1.124698	1.141477	29.500000	7.460000	34.673685
2077992.499372	0.074307	7.782835	0.038069	12.174885	0.183352	0.091326	12.119245	0.092481	0.092164	3.592361	1.123355	1.141173	29.500000	7.460000	34.673685
2077998.499716	0.005013	7.782978	0.038076	12.172082	0.182736	0.091338	12.123097	0.091471	0.092147	3.591328	1.120907	1.140830	29.500000	7.460000	34.673685
2078004.500059	-0.011264	7.782997	0.038078	12.175597	0.182207	0.091323	12.122081	0.090934	0.092152	3.590332	1.120907	1.140436	29.500000	7.460000	34.673685
2078010.499402	-0.018936	7.783119	0.038084	12.173282	0.183170	0.091333	12.126852	0.091794	0.092131	3.589060	1.120196	1.139995	29.500000	7.460000	34.673685
2078016.499745	0.028185	7.782921	0.038073	12.173423	0.183407	0.091332	12.130005	0.091786	0.092117	3.587719	1.118459	1.139507	29.500000	7.460000	34.673685
2078022.500088	0.084326	7.782344	0.038040	12.172783	0.183083	0.091335	12.131002	0.091865	0.092113	3.586266	1.117274	1.138987	29.500000	7.460000	34.673685
2078028.499432	0.089813	7.782726	0.038061	12.170808	0.183549	0.091343	12.132342	0.091778	0.092107	3.584651	1.117906	1.138425	29.500000	7.460000	34.673685
2078034.499775	-0.014879	7.782348	0.038041	12.173674	0.183494	0.091331	12.130942	0.092379	0.092113	3.583108	1.114668	1.137832	29.500000	7.460000	34.673685
2078040.500118	0.036238	7.784947	0.038189	12.176042	0.183707	0.091321	12.130527	0.091794	0.092115	3.581379	1.114747	1.137190	29.500000	7.460000	34.673685
2078046.499461	-0.018739	7.784847	0.038185	12.178671	0.184773	0.091309	12.129093	0.091881	0.092121	3.579523	1.113405	1.136488	29.500000	7.460000	34.673685
2078052.499804	-0.001579	7.785601	0.038227	12.177315	0.183589	0.091315	12.128467	0.093523	0.092124	3.577557	1.112141	1.135780	29.500000	7.460000	34.673685
2078058.499147	0.085391	7.787547	0.038337	12.177838	0.181591	0.091313	12.130204	0.091589	0.092116	3.575577	1.110878	1.135057	29.500000	7.460000	34.673685
2078064.499491	-0.018739	7.785581	0.038227	12.178654	0.183533	0.091309	12.129508	0.091518	0.092119	3.573423	1.109693	1.134281	29.500000	7.460000	34.673685
2078070.499834	0.093318	7.783847	0.038131	12.183571	0.183186	0.091288	12.128624	0.092560	0.092123	3.571394	1.108509	1.133476	29.500000	7.460000	34.673685
2078076.499177	0.059662	7.783936	0.038136	12.183938	0.183478	0.091286	12.127336	0.092102	0.092129	3.569119	1.108351	1.132648	29.500000	7.460000	34.673685
2078082.499520	0.060562	7.782815	0.038073	12.184341	0.183715	0.091285	12.126237	0.092221	0.092134	3.566800	1.107166	1.131804	29.500000	7.460000	34.673685
2078088.499863	-0.014224	7.782834	0.038074	12.183321	0.183865	0.091289	12.129151	0.091731	0.092121	3.564333	1.106376	1.130922	29.500000	7.460000	34.673685
2078094.499207	0.069775	7.782349	0.038046	12.183365	0.183328	0.091289	12.130912	0.092110	0.092113	3.561863	1.104718	1.130027	29.500000	7.460000	34.673685
2078100.501550	-0.017239	7.781618	0.038008	12.189704	0.182957	0.091262	12.127951	0.091976	0.092126	3.559542	1.105902	1.129115	29.500000	7.460000	34.673685
2078106.499893	-0.000126	7.780758	0.037960	12.190174	0.185547	0.091259	12.129628	0.090752	0.092119	3.557065	1.103454	1.128212	29.500000	7.460000	34.673685
2078112.500236	0.055264	7.780812	0.037962	12.189735	0.183533	0.091261	12.129483	0.092000	0.092119	3.554553	1.103375	1.127323	29.500000	7.460000	34.673685
2078118.499579	0.092244	7.780871	0.037965	12.188616	0.184820	0.091266	12.133847	0.092173	0.092100	3.552125	1.100848	1.126441	29.500000	7.460000	34.673685
2078124.499922	-0.017839	7.782267	0.038043	12.186740	0.182618	0.091274	12.136439	0.090223	0.092089	3.549429	1.100927	1.125487	29.500000	7.460000	34.673685
2078130.499266	0.008266	7.782753	0.038069	12.184099	0.183194	0.091286	12.135947	0.091407	0.092091	3.546675	1.099664	1.124521	29.500000	7.460000	34.673685
2078136.499609	0.074473	7.781830	0.038017	12.183598	0.183881	0.091288	12.135385	0.092071	0.092093	3.543983	1.098400	1.123552	29.500000	7.460000	34.673685
2078142.499952	0.083362	7.783722	0.038124	12.182953	0.184655	0.091291	12.133890	0.092307	0.092100	3.541269	1.097216	1.122577	29.500000	7.460000	34.673685
2078148.499295	0.025137	7.784273	0.038155	12.182567	0.183399	0.091292	12.135787	0.091771	0.092092	3.538666	1.097295	1.121655	29.500000	7.460000	34.673685
2078154.499639	-0.014611	7.783690	0.038124	12.186323	0.185341	0.091276	12.133300	0.092157	0.092103	3.536088	1.095952	1.120679	29.500000	7.460000	34.673685
2078160.499981	0.087018	7.785022	0.038199	12.187266	0.183620	0.091272	12.133057	0.091700	0.092104	3.533352	1.094689	1.119678	29.500000	7.460000	34.673685
2078166.499325	0.071962	7.785223	0.038212	12.189695	0.183360	0.091262	12.128943	0.091778	0.092122	3.530788	1.093425	1.118705	29.500000	7.460000	34.673685
2078172.499668	0.019169	7.784760	0.038188	12.192580	0.182641	0.091249	12.127665	0.091952	0.092127	3.528172	1.093346	1.117726	29.500000	7.460000	34.673685
2078178.500011	0.044093	7.783900	0.038140	12.195305	0.183826	0.091237	12.128746	0.091897	0.092123	3.525607	1.093425	1.116766	29.500000	7.460000	34.673685
2078184.499354	-0.012748	7.781756	0.038019	12.195812	0.185736	0.091235	12.129327	0.092063	0.092120	3.522997	1.092556	1.115816	29.500000	7.460000	34.673685
2078190.499698	-0.001500	7.781863	0.038024	12.194002	0.182333	0.091243	12.132538	0.092718	0.092106	3.520231	1.090898	1.114835	29.500000	7.460000	34.673685
2078196.500041	0.024411	7.781469	0.038002	12.194760	0.182626	0.091240	12.132929	0.091881	0.092104	3.517664	1.089792	1.113898	29.500000	7.460000	34.673685
2078202.499384	-0.019331	7.779891	0.037917	12.201374	0.183683	0.091211	12.133710	0.093642	0.092101	3.515215	1.089792	1.112935	29.500000	7.460000	34.673685
2078208.499727	0.012269	7.781725	0.038021	12.202587	0.182515	0.091206	12.136661	0.091692	0.092088	3.512627	1.088450	1.111984	29.500000	7.460000	34.673685
2078214.500070	0.071252	7.780415	0.037947	12.203966	0.182626	0.091200	12.141078	0.092505	0.092069	3.510011	1.088450	1.111022	29.500000	7.460000	34.673685
2078220.499413	0.054949	7.779743	0.037909	12.202785	0.183091	0.091205	12.143935	0.091850	0.092056	3.507434	1.087186	1.110118	29.500000	7.460000	34.673685
2078226.500757	0.089039	7.780281	0.037938	12.200229	0.183383	0.091216	12.148664	0.092734	0.092035	3.504775	1.087265	1.109170	29.500000	7.460000	34.673685
2078232.500100	0.091344	7.780960	0.037978	12.203040	0.183431	0.091204	12.150741	0.091407	0.092026	3.502346	1.085923	1.108259	29.500000	7.460000	34.673685
2078238.499443	-0.019939	7.780288	0.037942	12.207396	0.182878	0.091185	12.149881	0.091842	0.092030	3.499935	1.084659	1.107336	29.500000	7.460000	34.673685
2078244.499786	0.054601	7.779244	0.037884	12.209509	0.182973	0.091176	12.148227	0.091992	0.092037	3.497362	1.083396	1.106380	29.500000	7.460000	34.673685
2078250.500129	0.078349	7.779198	0.037881	12.208071	0.185034	0.091182	12.150995	0.091771	0.092025	3.494704	1.083396	1.105434	29.500000	7.460000	34.673685
2078256.499473	-0.022362	7.776900	0.037750	12.205801	0.182491	0.091192	12.154985	0.093381	0.092008	3.492058	1.083317	1.104503	29.500000	7.460000	34.673685
2078262.499815	0.032195	7.777421	0.037781	12.209471	0.182468	0.091176	12.157620	0.093239	0.091996	3.489754	1.083317	1.103642	29.500000	7.460000	34.673685
2078268.499159	-0.005170	7.778913	0.037868	12.213854	0.182744	0.091157	12.158348	0.091486	0.091993	3.487405	1.082053	1.102742	29.500000	7.460000	34.673685
2078274.499502	0.079210	7.777718	0.037802	12.216235	0.183060	0.091147	12.159209	0.092023	0.091989	3.484998	1.082132	1.101843	29.500000	7.460000	34.673685
2078280.499845	-0.018431	7.776589	0.037739	12.217795	0.184757	0.091140	12.160940	0.092536	0.091982	3.482712	1.082053	1.100983	29.500000	7.460000	34.673685
2078286.499188	-0.015653	7.776870	0.037756	12.220212	0.183281	0.091129	12.163308	0.091700	0.091971	3.480414	1.080790	1.100124	29.500000	7.460000	34.673685
2078292.499532	0.085802	7.776045	0.037710	12.221960	0.180612	0.091122	12.165739	0.090034	0.091961	3.478081	1.079605	1.099259	29.500000	7.460000	34.673685
2078298.499875	0.027048	7.776017	0.037710	12.225858	0.181591	0.091105	12.166416	0.092157	0.091958	3.475834	1.079605	1.098416	29.500000	7.460000	34.673685
2078304.499218	0.000110	7.774718	0.037636	12.224048	0.182112	0.091113	12.170180	0.091534	0.091941	3.473470	1.078262	1.097567	29.500000	7.460000	34.673685
2078310.499561	-0.013798	7.774476	0.037621	12.221638	0.182049	0.091123	12.175656	0.092063	0.091917	3.471045	1.077236	1.096717	29.500000	7.460000	34.673685
2078316.499904	-0.000963	7.773321	0.037556	12.221679	0.184307	0.091123	12.179988	0.091976	0.091898	3.468698	1.077078	1.095881	29.500000	7.460000	34.673685
2078322.499248	0.039853	7.771293	0.037438	12.216847	0.183241	0.091144	12.186087	0.091747	0.091872	3.466279	1.077157	1.095061	29.500000	7.460000	34.673685
2078328.499590	0.036451	7.770501	0.037394	12.217413	0.182783	0.091142	12.187876	0.092607	0.091864	3.464019	1.075893	1.094237	29.500000	7.460000	34.673685
2078334.499934	0.092907	7.770667	0.037400	12.211046	0.183186	0.091169	12.191093	0.091731	0.091850	3.461641	1.075893	1.093435	29.500000	7.460000	34.673685
2078340.499277	0.092521	7.768935	0.037302	12.211864	0.181031	0.091166	12.195935	0.090286	0.091829	3.459471	1.074630	1.092641	29.500000	7.460000	34.673685
2078346.499620	0.005479	7.768741	0.037288	12.205601	0.183557	0.091193	12.201099	0.093121	0.091806	3.457124	1.074551	1.091863	29.500000	7.460000	34.673685
2078352.499963	0.071591	7.768248	0.037256	12.198431	0.182807	0.091224	12.206535	0.091076	0.091783	3.454763	1.074630	1.091092	29.500000	7.460000	34.673685
2078358.499307	0.007492	7.765964	0.037126	12.198197	0.182144	0.091225	12.208069	0.091502	0.091776	3.452632	1.073287	1.090322	29.500000	7.460000	34.673685
2078364.499650	-0.018826	7.763822	0.037007	12.201746	0.184118	0.091209	12.205533	0.091636	0.091787	3.450633	1.072103	1.089559	29.500000	7.460000	34.673685
2078370.499993	0.091621	7.761565	0.036879	12.201787	0.182926	0.091209	12.205922	0.091707	0.091785	3.448554	1.072024	1.088818	29.500000	7.460000	34.673685
2078376.499336	-0.021162	7.761034	0.036849	12.200340	0.182499	0.091215	12.207092	0.092363	0.091780	3.446516	1.070839	1.088085	29.500000	7.460000	34.673685
2078382.499679	0.063594	7.760767	0.036832	12.198884	0.180636	0.091222	12.209354	0.090081	0.091770	3.444412	1.070918	1.087340	29.500000	7.460000	34.673685
2078388.500022	0.082107	7.760404	0.036810	12.194808	0.181441	0.091239	12.214785	0.090847	0.091747	3.442232	1.069655	1.086597	29.500000	7.460000	34.673685
2078394.499365	0.088589	7.761327	0.036862	12.195404	0.182768	0.091237	12.218871	0.091502	0.091729	3.440261	1.068470	1.085877	29.500000	7.460000	34.673685
2078400.499709	0.053543	7.761429	0.036868	12.194755	0.182689	0.091240	12.223235	0.091526	0.091710	3.438253	1.068312	1.085170	29.500000	7.460000	34.673685
2078406.500052	0.084831	7.759774	0.036775	12.196714	0.181631	0.091231	12.224307	0.090310	0.091705	3.436256	1.067206	1.084425	29.500000	7.460000	34.673685
2078412.499395	0.037098	7.760961	0.036843	12.196587	0.183273	0.091232	12.222291	0.091360	0.091714	3.434290	1.067206	1.083715	29.500000	7.460000	34.673685
2078418.499738	0.064178	7.761498	0.036869	12.189779	0.180983	0.091261	12.225810	0.090192	0.091699	3.432054	1.065943	1.082984	29.500000	7.460000	34.673685
2078424.500082	0.002795	7.762155	0.036905	12.187622	0.183020	0.091271	12.227915	0.091771	0.091689	3.430056	1.064679	1.082273	29.500000	7.460000	34.673685
2078430.499424	0.047946	7.761829	0.036888	12.189687	0.180999	0.091262	12.229934	0.091392	0.091681	3.428130	1.064758	1.081553	29.500000	7.460000	34.673685
2078436.499768	0.079778	7.763556	0.036985	12.188167	0.182318	0.091268	12.232850	0.091897	0.091668	3.426162	1.065153	1.080870	29.500000	7.460000	34.673685
2078442.500111	0.065828	7.761224	0.036853	12.189169	0.182673	0.091264	12.230206	0.090618	0.091679	3.424331	1.063416	1.080196	29.500000	7.460000	34.673685
2078448.499454	0.094131	7.760439	0.036806	12.185206	0.183344	0.091281	12.230914	0.091857	0.091676	3.422437	1.062626	1.079544	29.500000	7.460000	34.673685
2078454.499797	-0.016750	7.759518	0.036754	12.185342	0.183005	0.091280	12.233617	0.091510	0.091665	3.420708	1.062073	1.078928	29.500000	7.460000	34.673685
2078460.505141	0.036774	7.758365	0.036689	12.184731	0.184836	0.091283	12.233670	0.091652	0.091664	3.419117	1.062310	1.078348	29.500000	7.460000	34.673685
2078466.499484	0.064359	7.758726	0.036710	12.184887	0.182736	0.091282	12.232741	0.090918	0.091668	3.417506	1.063416	1.077774	29.500000	7.460000	34.673685
2078472.499827	0.075547	7.758646	0.036705	12.184987	0.182878	0.091282	12.233025	0.091328	0.091667	3.416157	1.063969	1.077285	29.500000	7.460000	34.673685
2078478.499170	-0.003300	7.758873	0.036717	12.183905	0.180660	0.091287	12.235618	0.092236	0.091656	3.414559	1.062310	1.076719	29.500000	7.460000	34.673685
2078484.499513	-0.014697	7.758342	0.036687	12.183642	0.180952	0.091288	12.236383	0.091802	0.091653	3.412907	1.059704	1.076124	29.500000	7.460000	34.673685
2078490.499856	-0.007886	7.759484	0.036754	12.188271	0.183510	0.091268	12.237483	0.091589	0.091648	3.411164	1.054650	1.075440	29.500000	7.460000	34.673685
2078496.500200	0.094510	7.758135	0.036678	12.188211	0.183652	0.091268	12.237083	0.092079	0.091649	3.409494	1.048569	1.074822	29.500000	7.460000	34.673685
2078502.499543	0.018506	7.758582	0.036704	12.190452	0.184647	0.091258	12.236093	0.092213	0.091654	3.407035	1.042330	1.073905	29.500000	7.460000	34.673685
2078508.499886	-0.008043	7.757659	0.036652	12.189551	0.184931	0.091262	12.233974	0.090436	0.091663	3.404251	1.037434	1.072923	29.500000	7.460000	34.673685
2078514.499229	0.036261	7.756128	0.036565	12.189042	0.183320	0.091264	12.235607	0.091392	0.091656	3.401285	1.033644	1.071837	29.500000	7.460000	34.673685
2078520.499572	0.077244	7.756574	0.036588	12.185097	0.184544	0.091281	12.240420	0.091621	0.091635	3.398006	1.030090	1.070694	29.500000	7.460000	34.673685
2078526.499916	0.049296	7.757276	0.036627	12.183383	0.182310	0.091289	12.240586	0.089726	0.091634	3.394692	1.028668	1.069514	29.500000	7.460000	34.673685
2078532.499259	0.012182	7.757276	0.036626	12.181655	0.182326	0.091296	12.244408	0.091747	0.091618	3.391354	1.027484	1.068326	29.500000	7.460000	34.673685
2078538.499602	0.055951	7.757349	0.036632	12.186653	0.182578	0.091275	12.241973	0.090184	0.091628	3.388176	1.026299	1.067138	29.500000	7.460000	34.673685
2078544.499945	-0.006370	7.758117	0.036677	12.189237	0.182815	0.091264	12.240099	0.092750	0.091636	3.385012	1.026299	1.065943	29.500000	7.460000	34.673685
2078550.499288	0.063238	7.758973	0.036726	12.189193	0.182689	0.091264	12.236838	0.091581	0.091651	3.381850	1.028668	1.064801	29.500000	7.460000	34.673685
2078556.499631	0.067952	7.759292	0.036741	12.184686	0.182231	0.091283	12.239381	0.090784	0.091639	3.378685	1.028984	1.063707	29.500000	7.460000	34.673685
2078562.499975	0.019761	7.759744	0.036764	12.179971	0.182862	0.091304	12.240752	0.090807	0.091633	3.375592	1.031117	1.062643	29.500000	7.460000	34.673685
2078568.499318	0.041575	7.760493	0.036806	12.178601	0.184339	0.091310	12.243469	0.090673	0.091622	3.372709	1.033723	1.061615	29.500000	7.460000	34.673685
2078574.499661	0.028366	7.758568	0.036697	12.179300	0.183020	0.091307	12.241874	0.093405	0.091629	3.370044	1.034828	1.060659	29.500000	7.460000	34.673685
2078580.500004	0.017535	7.757233	0.036623	12.180986	0.183131	0.091299	12.242327	0.091873	0.091627	3.367603	1.037355	1.059742	29.500000	7.460000	34.673685
2078586.499347	0.030119	7.757742	0.036649	12.176299	0.182957	0.091320	12.243435	0.091068	0.091622	3.365043	1.039882	1.058870	29.500000	7.460000	34.673685
2078592.499691	-0.012929	7.759752	0.036765	12.179157	0.183257	0.091307	12.244828	0.091597	0.091616	3.362872	1.042251	1.058052	29.500000	7.460000	34.673685
2078598.500034	0.085541	7.759232	0.036735	12.178916	0.183170	0.091308	12.248606	0.091463	0.091599	3.360794	1.044779	1.057316	29.500000	7.460000	34.673685
2078604.499377	0.086544	7.760758	0.036821	12.178552	0.183265	0.091310	12.250948	0.091242	0.091589	3.358871	1.047306	1.056624	29.500000	7.460000	34.673685
2078610.499720	0.036593	7.759257	0.036734	12.174073	0.182815	0.091329	12.253456	0.092900	0.091578	3.357034	1.049833	1.056001	29.500000	7.460000	34.673685
2078616.500063	-0.020854	7.758993	0.036719	12.174372	0.182926	0.091328	12.254588	0.091881	0.091573	3.355533	1.052281	1.055455	29.500000	7.460000	34.673685
2078622.499406	0.034895	7.761006	0.036834	12.176914	0.183060	0.091317	12.256157	0.092023	0.091566	3.354292	1.054492	1.054978	29.500000	7.460000	34.673685
2078628.499750	0.065015	7.759856	0.036769	12.177275	0.182957	0.091315	12.259477	0.092347	0.091552	3.353107	1.055835	1.054545	29.500000	7.460000	34.673685
2078634.500093	-0.021809	7.759062	0.036725	12.177881	0.181986	0.091313	12.261066	0.091392	0.091545	3.352052	1.058362	1.054164	29.500000	7.460000	34.673685
2078640.499436	0.016856	7.758664	0.036701	12.175218	0.184639	0.091324	12.262602	0.091881	0.091538	3.351068	1.060889	1.053833	29.500000	7.460000	34.673685
2078646.499779	-0.017752	7.759216	0.036731	12.173235	0.182894	0.091333	12.267759	0.091155	0.091516	3.350200	1.062231	1.053542	29.500000	7.460000	34.673685
2078652.500123	0.038282	7.758863	0.036712	12.174326	0.182973	0.091328	12.269515	0.089915	0.091508	3.349579	1.063337	1.053306	29.500000	7.460000	34.673685
2078658.499465	-0.004286	7.758474	0.036692	12.179540	0.182633	0.091306	12.270200	0.090823	0.091505	3.349128	1.063495	1.053086	29.500000	7.460000	34.673685
2078664.499809	0.079968	7.758963	0.036721	12.181684	0.183076	0.091296	12.272315	0.091186	0.091496	3.348653	1.064758	1.052889	29.500000	7.460000	34.673685
2078670.499152	-0.000640	7.758390	0.036692	12.186996	0.183470	0.091273	12.269880	0.091581	0.091507	3.348383	1.066022	1.052731	29.500000	7.460000	34.673685
2078676.499495	-0.010261	7.756871	0.036605	12.186396	0.181797	0.091276	12.273948	0.090065	0.091489	3.347991	1.064679	1.052594	29.500000	7.460000	34.673685
2078682.499838	0.092007	7.758257	0.036686	12.191930	0.181402	0.091252	12.272955	0.089686	0.091493	3.347770	1.064758	1.052450	29.500000	7.460000	34.673685
2078688.499181	0.068236	7.758065	0.036676	12.191968	0.182531	0.091252	12.274779	0.091344	0.091486	3.347430	1.064679	1.052327	29.500000	7.460000	34.673685
2078694.499525	0.013548	7.756481	0.036584	12.187169	0.182089	0.091272	12.278778	0.092110	0.091468	3.346964	1.064679	1.052215	29.500000	7.460000	34.673685
2078700.499868	0.087839	7.757239	0.036625	12.184767	0.182523	0.091283	12.283452	0.090223	0.091448	3.346615	1.064679	1.052117	29.500000	7.460000	34.673685
2078706.499211	0.032843	7.759215	0.036740	12.189830	0.180652	0.091261	12.283168	0.090760	0.091449	3.346499	1.063258	1.052014	29.500000	7.460000	34.673685
2078712.499554	0.088802	7.758879	0.036722	12.192778	0.182933	0.091248	12.284058	0.091486	0.091445	3.346281	1.063179	1.051902	29.500000	7.460000	34.673685
2078718.499897	0.011653	7.758393	0.036695	12.192567	0.184765	0.091249	12.285367	0.092915	0.091440	3.346018	1.062073	1.051811	29.500000	7.460000	34.673685
2078724.499240	0.037438	7.757889	0.036665	12.190742	0.183305	0.091257	12.287606	0.091415	0.091430	3.345686	1.060731	1.051710	29.500000	7.460000	34.673685
2078730.499584	0.015340	7.758538	0.036701	12.189642	0.180628	0.091262	12.290503	0.089852	0.091417	3.345335	1.059704	1.051595	29.500000	7.460000	34.673685
2078736.499927	0.066317	7.758583	0.036704	12.189032	0.184236	0.091264	12.293913	0.091755	0.091402	3.345036	1.059546	1.051494	29.500000	7.460000	34.673685
2078742.499270	0.091202	7.757996	0.036669	12.186307	0.180423	0.091276	12.295857	0.091242	0.091394	3.344611	1.057493	1.051374	29.500000	7.460000	34.673685
2078748.499613	0.044946	7.757310	0.036631	12.188143	0.182949	0.091268	12.296414	0.091573	0.091392	3.344281	1.055914	1.051230	29.500000	7.460000	34.673685
2078754.499957	0.052967	7.756629	0.036592	12.187157	0.180833	0.091273	12.299186	0.091123	0.091380	3.343824	1.054571	1.051076	29.500000	7.460000	34.673685
2078760.499300	-0.001745	7.756844	0.036607	12.193592	0.182989	0.091245	12.296028	0.091510	0.091393	3.343607	1.054650	1.050924	29.500000	7.460000	34.673685
2078766.499643	0.009466	7.756616	0.036595	12.193714	0.184260	0.091244	12.295868	0.091036	0.091394	3.343166	1.053544	1.050765	29.500000	7.460000	34.673685
2078772.499986	0.066894	7.756697	0.036599	12.192370	0.180968	0.091250	12.297839	0.090152	0.091385	3.342605	1.052281	1.050578	29.500000	7.460000	34.673685
2078778.499329	0.039909	7.756727	0.036601	12.193600	0.182618	0.091245	12.294683	0.091107	0.091399	3.342012	1.051096	1.050349	29.500000	7.460000	34.673685
2078784.499672	-0.011390	7.758704	0.036713	12.193436	0.182704	0.091245	12.297315	0.091921	0.091388	3.341340	1.049833	1.050103	29.500000	7.460000	34.673685
2078790.500016	0.069878	7.758633	0.036709	12.194715	0.182468	0.091240	12.297424	0.091739	0.091387	3.340781	1.047385	1.049887	29.500000	7.460000	34.673685
2078796.499359	0.058107	7.759528	0.036761	12.197020	0.180999	0.091230	12.294296	0.092765	0.091401	3.340477	1.044937	1.049752	29.500000	7.460000	34.673685
2078802.499702	-0.020475	7.759492	0.036760	12.197175	0.182326	0.091229	12.293413	0.092126	0.091405	3.340378	1.043594	1.049717	29.500000	7.460000	34.673685
2078808.500045	0.045917	7.758996	0.036730	12.194927	0.184110	0.091239	12.294684	0.092994	0.091399	3.340400	1.041778	1.049750	29.500000	7.460000	34.673685
2078814.499388	-0.000482	7.758630	0.036709	12.193940	0.182768	0.091243	12.294433	0.091076	0.091400	3.340624	1.039882	1.049843	29.500000	7.460000	34.673685
2078820.501731	-0.004491	7.758176	0.036682	12.192150	0.180944	0.091251	12.296790	0.090847	0.091390	3.340957	1.039172	1.049986	29.500000	7.460000	34.673685
2078826.500074	0.016990	7.759146	0.036738	12.192997	0.182104	0.091247	12.297296	0.091147	0.091388	3.341383	1.036250	1.050131	29.500000	7.460000	34.673685
2078832.499418	0.040935	7.760118	0.036791	12.190469	0.180131	0.091258	12.300417	0.091684	0.091374	3.341732	1.037197	1.050287	29.500000	7.460000	34.673685
2078838.499761	0.062638	7.761313	0.036859	12.190872	0.182491	0.091256	12.301170	0.092394	0.091371	3.342234	1.034907	1.050461	29.500000	7.460000	34.673685
2078844.501104	0.092213	7.762306	0.036918	12.194842	0.182823	0.091239	12.299847	0.090223	0.091377	3.342837	1.034828	1.050633	29.500000	7.460000	34.673685
2078850.499447	0.032590	7.763807	0.037002	12.194505	0.182491	0.091241	12.299330	0.093223	0.091379	3.343250	1.034986	1.050789	29.500000	7.460000	34.673685
2078856.499791	0.080962	7.764935	0.037067	12.195938	0.182231	0.091234	12.298217	0.091478	0.091384	3.343650	1.034986	1.050917	29.500000	7.460000	34.673685
2078862.499134	-0.005731	7.764396	0.037038	12.198477	0.182515	0.091223	12.298463	0.091178	0.091383	3.344020	1.034986	1.051021	29.500000	7.460000	34.673685
2078868.499477	0.025390	7.764042	0.037018	12.199149	0.182997	0.091221	12.300635	0.091423	0.091373	3.344218	1.034828	1.051085	29.500000	7.460000	34.673685
2078874.501820	0.070652	7.764292	0.037035	12.204357	0.182681	0.091198	12.300079	0.091257	0.091376	3.344485	1.036171	1.051121	29.500000	7.460000	34.673685
2078880.499163	0.008242	7.765020	0.037077	12.205847	0.182349	0.091192	12.298799	0.090578	0.091381	3.344556	1.036408	1.051129	29.500000	7.460000	34.673685
2078886.499506	0.084926	7.764905	0.037073	12.210900	0.182326	0.091170	12.295252	0.089655	0.091397	3.344613	1.036171	1.051090	29.500000	7.460000	34.673685
2078892.499849	-0.020807	7.765285	0.037095	12.211943	0.182649	0.091165	12.293910	0.091486	0.091402	3.344397	1.036802	1.051002	29.500000	7.460000	34.673685
2078898.500193	-0.019473	7.765481	0.037107	12.211769	0.182397	0.091166	12.295017	0.090894	0.091398	3.344074	1.037434	1.050886	29.500000	7.460000	34.673685
2078904.499536	0.002676	7.766084	0.037142	12.213770	0.183723	0.091157	12.293457	0.091194	0.091404	3.343736	1.038619	1.050739	29.500000	7.460000	34.673685
2078910.499879	0.016792	7.765429	0.037103	12.211739	0.182057	0.091166	12.296700	0.089963	0.091390	3.343203	1.039882	1.050568	29.500000	7.460000	34.673685
2078916.499222	0.073083	7.765062	0.037083	12.212172	0.181394	0.091164	12.300168	0.092923	0.091375	3.342623	1.039803	1.050357	29.500000	7.460000	34.673685
2078922.499566	0.073889	7.765133	0.037088	12.213834	0.182365	0.091157	12.299715	0.090634	0.091377	3.342016	1.041067	1.050118	29.500000	7.460000	34.673685
2078928.500909	-0.016916	7.764359	0.037044	12.214115	0.180391	0.091156	12.301418	0.092386	0.091370	3.341280	1.042330	1.049844	29.500000	7.460000	34.673685
2078934.499252	0.024245	7.764710	0.037066	12.217474	0.180794	0.091141	12.297908	0.091644	0.091385	3.340628	1.043594	1.049569	29.500000	7.460000	34.673685
2078940.499595	0.074370	7.765593	0.037116	12.217256	0.182231	0.091142	12.298492	0.092292	0.091383	3.339772	1.043594	1.049261	29.500000	7.460000	34.673685
2078946.499938	0.017313	7.766106	0.037145	12.217424	0.183076	0.091141	12.300845	0.091873	0.091372	3.338866	1.044858	1.048931	29.500000	7.460000	34.673685
2078952.499281	-0.013679	7.765780	0.037127	12.217826	0.182926	0.091140	12.300964	0.091447	0.091372	3.337947	1.046121	1.048594	29.500000	7.460000	34.673685
2078958.499625	0.093839	7.766808	0.037184	12.216754	0.180597	0.091144	12.302494	0.091534	0.091365	3.337011	1.047622	1.048273	29.500000	7.460000	34.673685
2078964.499968	0.004618	7.766775	0.037183	12.217837	0.182973	0.091140	12.303000	0.091415	0.091363	3.336191	1.048490	1.047958	29.500000	7.460000	34.673685
2078970.499311	0.040525	7.766938	0.037192	12.217223	0.183360	0.091142	12.304393	0.089663	0.091357	3.335323	1.051096	1.047652	29.500000	7.460000	34.673685
2078976.499654	0.088242	7.768238	0.037264	12.214211	0.181860	0.091155	12.305300	0.092663	0.091353	3.334470	1.052360	1.047382	29.500000	7.460000	34.673685
2078982.500998	0.040785	7.771209	0.037432	12.214608	0.183415	0.091154	12.303445	0.090278	0.091361	3.333853	1.053623	1.047151	29.500000	7.460000	34.673685
2078988.499341	0.058967	7.770524	0.037394	12.214840	0.184426	0.091153	12.304015	0.089686	0.091359	3.333290	1.054571	1.046945	29.500000	7.460000	34.673685
2078994.499684	0.021419	7.770627	0.037398	12.211588	0.183802	0.091167	12.305995	0.091044	0.091350	3.332683	1.055914	1.046763	29.500000	7.460000	34.673685
2079000.500027	0.054996	7.772461	0.037503	12.213614	0.182965	0.091158	12.305974	0.091850	0.091350	3.332321	1.058362	1.046611	29.500000	7.460000	34.673685
2079006.499370	0.073154	7.774750	0.037632	12.212911	0.182183	0.091161	12.306926	0.091960	0.091346	3.332073	1.060889	1.046530	29.500000	7.460000	34.673685
2079012.499713	-0.011161	7.774461	0.037614	12.210331	0.182404	0.091172	12.309824	0.091076	0.091333	3.331952	1.062152	1.046515	29.500000	7.460000	34.673685
2079018.500056	-0.014634	7.776322	0.037720	12.211262	0.180131	0.091168	12.309327	0.089694	0.091336	3.331994	1.063337	1.046520	29.500000	7.460000	34.673685
2079024.499400	0.083860	7.776970	0.037758	12.213073	0.181639	0.091160	12.309564	0.091131	0.091334	3.332231	1.066022	1.046587	29.500000	7.460000	34.673685
2079030.499743	0.044069	7.777323	0.037778	12.213738	0.182736	0.091157	12.312288	0.090736	0.091323	3.332609	1.068786	1.046717	29.500000	7.460000	34.673685
2079036.502086	-0.021012	7.777669	0.037796	12.210166	0.182444	0.091173	12.316760	0.091336	0.091303	3.333001	1.069734	1.046897	29.500000	7.460000	34.673685
2079042.499429	0.074899	7.778832	0.037860	12.207367	0.181931	0.091185	12.321218	0.090942	0.091284	3.333580	1.072024	1.047139	29.500000	7.460000	34.673685
2079048.499772	0.039411	7.779894	0.037919	12.206264	0.181291	0.091190	12.322746	0.091857	0.091277	3.334419	1.075104	1.047455	29.500000	7.460000	34.673685
2079054.500115	0.031737	7.780894	0.037976	12.206593	0.181694	0.091188	12.323487	0.090507	0.091274	3.335438	1.074630	1.047826	29.500000	7.460000	34.673685
2079060.499459	0.090097	7.780087	0.037933	12.210034	0.182041	0.091173	12.323600	0.091510	0.091274	3.336733	1.077789	1.048258	29.500000	7.460000	34.673685
2079066.499802	-0.015660	7.779472	0.037898	12.211264	0.180210	0.091168	12.323427	0.093010	0.091274	3.338089	1.079526	1.048735	29.500000	7.460000	34.673685
2079072.499145	0.059709	7.779894	0.037922	12.211576	0.183533	0.091167	12.324627	0.092481	0.091269	3.339588	1.080869	1.049265	29.500000	7.460000	34.673685
2079078.499488	0.079976	7.779816	0.037918	12.212035	0.181931	0.091165	12.324555	0.091147	0.091269	3.341279	1.083238	1.049872	29.500000	7.460000	34.673685
2079084.499831	0.070581	7.779683	0.037910	12.211431	0.182112	0.091167	12.326836	0.091336	0.091260	3.343149	1.085923	1.050568	29.500000	7.460000	34.673685
2079090.499175	0.026851	7.779198	0.037882	12.210063	0.182602	0.091173	12.330156	0.090650	0.091245	3.345191	1.088371	1.051324	29.500000	7.460000	34.673685
2079096.499517	-0.021407	7.778750	0.037857	12.209447	0.184220	0.091176	12.330789	0.089568	0.091242	3.347465	1.089634	1.052155	29.500000	7.460000	34.673685
2079102.499861	-0.005273	7.778163	0.037823	12.208660	0.181986	0.091179	12.334878	0.090602	0.091225	3.350007	1.092635	1.053070	29.500000	7.460000	34.673685
2079108.501204	0.009805	7.778048	0.037816	12.207759	0.179854	0.091183	12.339212	0.089544	0.091206	3.352794	1.094689	1.054089	29.500000	7.460000	34.673685
2079114.499547	0.020874	7.778121	0.037820	12.207172	0.184378	0.091186	12.341652	0.092363	0.091195	3.355772	1.095636	1.055174	29.500000	7.460000	34.673685
2079120.499890	0.056330	7.779615	0.037903	12.204403	0.184899	0.091198	12.344317	0.092205	0.091184	3.358819	1.098321	1.056328	29.500000	7.460000	34.673685
2079126.499234	0.026369	7.780265	0.037938	12.201748	0.181283	0.091209	12.349293	0.091186	0.091162	3.362148	1.100848	1.057565	29.500000	7.460000	34.673685
2079132.499577	0.081626	7.778939	0.037863	12.201722	0.182886	0.091209	12.353203	0.089742	0.091145	3.365771	1.103375	1.058878	29.500000	7.460000	34.673685
2079138.499920	0.009308	7.779586	0.037899	12.200455	0.181710	0.091215	12.355642	0.091092	0.091135	3.369486	1.105902	1.060215	29.500000	7.460000	34.673685
2079144.502263	0.002645	7.779026	0.037868	12.202418	0.182207	0.091206	12.356970	0.091202	0.091129	3.373424	1.107719	1.061642	29.500000	7.460000	34.673685
2079150.499606	0.084839	7.779412	0.037890	12.202042	0.182002	0.091208	12.358576	0.089639	0.091122	3.377464	1.109693	1.063109	29.500000	7.460000	34.673685
2079156.499949	0.050583	7.778710	0.037850	12.202225	0.182002	0.091207	12.361059	0.090089	0.091111	3.381673	1.112141	1.064605	29.500000	7.460000	34.673685
2079162.499293	0.012426	7.778914	0.037862	12.202134	0.184031	0.091208	12.361513	0.090902	0.091109	3.386042	1.115142	1.066188	29.500000	7.460000	34.673685
2079168.499636	0.047819	7.779257	0.037881	12.201458	0.182199	0.091211	12.363401	0.091257	0.091101	3.390393	1.116011	1.067797	29.500000	7.460000	34.673685
2079174.499979	0.040027	7.779794	0.037907	12.194105	0.182641	0.091242	12.367358	0.091250	0.091084	3.394654	1.117195	1.069424	29.500000	7.460000	34.673685
2079180.499322	0.079304	7.779050	0.037866	12.194958	0.182720	0.091239	12.366176	0.090136	0.091089	3.399256	1.120828	1.071053	29.500000	7.460000	34.673685
2079186.501666	-0.009417	7.778314	0.037824	12.195565	0.182768	0.091236	12.365612	0.091068	0.091092	3.403990	1.122092	1.072760	29.500000	7.460000	34.673685
2079192.500009	0.040975	7.779068	0.037868	12.197010	0.182491	0.091230	12.365257	0.091455	0.091093	3.408871	1.124540	1.074510	29.500000	7.460000	34.673685
2079198.500352	0.079644	7.779800	0.037910	12.197800	0.182397	0.091226	12.366196	0.089331	0.091089	3.413725	1.127146	1.076287	29.500000	7.460000	34.673685
2079204.499695	0.090310	7.779543	0.037895	12.197867	0.182428	0.091226	12.369631	0.091557	0.091074	3.418683	1.128172	1.078081	29.500000	7.460000	34.673685
2079210.500038	0.023235	7.779940	0.037918	12.197868	0.182097	0.091226	12.369671	0.090492	0.091074	3.423699	1.130621	1.079897	29.500000	7.460000	34.673685
2079216.499381	-0.008912	7.780612	0.037955	12.197037	0.182618	0.091230	12.371312	0.089552	0.091067	3.428738	1.132990	1.081700	29.500000	7.460000	34.673685
2079222.499724	0.077631	7.782032	0.038034	12.193592	0.181347	0.091245	12.374342	0.091202	0.091054	3.433777	1.134174	1.083564	29.500000	7.460000	34.673685
2079228.502068	0.079099	7.782643	0.038068	12.193742	0.182697	0.091244	12.376437	0.090650	0.091045	3.439033	1.137728	1.085464	29.500000	7.460000	34.673685
2079234.499411	-0.017271	7.782713	0.038073	12.194917	0.183991	0.091239	12.378025	0.091155	0.091038	3.444283	1.140018	1.087383	29.500000	7.460000	34.673685
2079240.499754	0.087957	7.784959	0.038200	12.194403	0.180218	0.091241	12.379849	0.090847	0.091030	3.449639	1.141913	1.089329	29.500000	7.460000	34.673685
2079246.500097	-0.015289	7.786722	0.038301	12.197006	0.182610	0.091230	12.379611	0.090847	0.091031	3.455155	1.142466	1.091262	29.500000	7.460000	34.673685
2079252.499440	0.022469	7.788266	0.038388	12.196722	0.182515	0.091231	12.381110	0.090784	0.091025	3.460569	1.144677	1.093225	29.500000	7.460000	34.673685
2079258.499784	-0.000845	7.788948	0.038428	12.198768	0.181947	0.091222	12.380499	0.091202	0.091027	3.465984	1.146178	1.095195	29.500000	7.460000	34.673685
2079264.500127	0.051743	7.790708	0.038528	12.199453	0.183778	0.091219	12.381339	0.091013	0.091024	3.471531	1.149811	1.097196	29.500000	7.460000	34.673685
2079270.499470	0.018119	7.791249	0.038559	12.200579	0.180612	0.091214	12.381798	0.091178	0.091022	3.477155	1.152259	1.099219	29.500000	7.460000	34.673685
2079276.499813	0.081760	7.790932	0.038545	12.208000	0.182610	0.091182	12.379207	0.090950	0.091033	3.482980	1.153522	1.101208	29.500000	7.460000	34.673685
2079282.502156	0.005747	7.790547	0.038524	12.208848	0.182412	0.091179	12.376591	0.091447	0.091044	3.488606	1.154707	1.103234	29.500000	7.460000	34.673685
2079288.499499	0.078168	7.790537	0.038525	12.211898	0.180297	0.091165	12.376167	0.091115	0.091046	3.494332	1.157155	1.105272	29.500000	7.460000	34.673685
2079294.499843	0.053906	7.790597	0.038530	12.214416	0.181568	0.091154	12.375396	0.091471	0.091049	3.499986	1.158418	1.107323	29.500000	7.460000	34.673685
2079300.499186	0.008179	7.791447	0.038578	12.214456	0.181607	0.091154	12.377758	0.089907	0.091039	3.505708	1.161419	1.109395	29.500000	7.460000	34.673685
2079306.499529	0.078610	7.790536	0.038527	12.214750	0.183249	0.091153	12.379390	0.089821	0.091032	3.511447	1.163473	1.111434	29.500000	7.460000	34.673685
2079312.499872	0.023282	7.789512	0.038468	12.213971	0.180304	0.091156	12.381662	0.091139	0.091022	3.517164	1.166789	1.113512	29.500000	7.460000	34.673685
2079318.499215	0.071631	7.789332	0.038459	12.215270	0.184299	0.091151	12.382814	0.091905	0.091017	3.522917	1.168448	1.115614	29.500000	7.460000	34.673685
2079324.499558	-0.012203	7.789893	0.038492	12.217840	0.182349	0.091140	12.381758	0.091100	0.091022	3.528822	1.171054	1.117722	29.500000	7.460000	34.673685
2079330.499902	0.087397	7.788995	0.038440	12.215714	0.181899	0.091149	12.384575	0.090902	0.091010	3.534554	1.172160	1.119821	29.500000	7.460000	34.673685
2079336.502245	-0.001847	7.789795	0.038486	12.216898	0.182065	0.091144	12.385708	0.089836	0.091005	3.540338	1.174924	1.121901	29.500000	7.460000	34.673685
2079342.499588	0.001500	7.790504	0.038526	12.217207	0.182412	0.091142	12.387491	0.091115	0.090997	3.546199	1.177056	1.124019	29.500000	7.460000	34.673685
2079348.499931	0.092836	7.789669	0.038480	12.219970	0.182002	0.091130	12.386522	0.090784	0.091001	3.552083	1.179188	1.126117	29.500000	7.460000	34.673685
2079354.499274	0.090650	7.788972	0.038441	12.220266	0.183360	0.091129	12.386209	0.092300	0.091003	3.557935	1.182742	1.128197	29.500000	7.460000	34.673685
2079360.500618	0.055730	7.789605	0.038476	12.219208	0.182444	0.091134	12.388736	0.091344	0.090992	3.563741	1.184716	1.130346	29.500000	7.460000	34.673685
2079366.499961	-0.018194	7.791341	0.038575	12.220160	0.182073	0.091130	12.391680	0.091115	0.090979	3.569716	1.185980	1.132462	29.500000	7.460000	34.673685
2079372.499304	0.069910	7.791809	0.038602	12.220481	0.179847	0.091128	12.393448	0.090973	0.090971	3.575686	1.188507	1.134619	29.500000	7.460000	34.673685
2079378.499647	0.047338	7.793278	0.038685	12.221101	0.181702	0.091126	12.395779	0.090831	0.090961	3.581594	1.192139	1.136787	29.500000	7.460000	34.673685
2079384.499990	0.037453	7.792662	0.038650	12.219916	0.182026	0.091131	12.397227	0.089647	0.090955	3.587542	1.194824	1.138953	29.500000	7.460000	34.673685
2079390.501334	0.066728	7.793887	0.038719	12.220530	0.181623	0.091128	12.398905	0.092055	0.090948	3.593585	1.197272	1.141097	29.500000	7.460000	34.673685
2079396.499677	-0.009646	7.794511	0.038754	12.219026	0.182318	0.091135	12.402057	0.091147	0.090934	3.599486	1.199721	1.143287	29.500000	7.460000	34.673685
2079402.500020	0.091952	7.794373	0.038747	12.220037	0.180660	0.091130	12.401920	0.090721	0.090935	3.605578	1.201537	1.145480	29.500000	7.460000	34.673685
2079408.499363	0.078697	7.795748	0.038825	12.220521	0.181812	0.091128	12.402759	0.089213	0.090931	3.611614	1.202248	1.147659	29.500000	7.460000	34.673685
2079414.499706	0.030514	7.796120	0.038846	12.220202	0.180565	0.091129	12.404488	0.089023	0.090924	3.617622	1.206275	1.149838	29.500000	7.460000	34.673685
2079420.500050	7.090024E-5	7.795277	0.038799	12.221609	0.181891	0.091123	12.405435	0.089971	0.090920	3.623739	1.207381	1.151999	29.500000	7.460000	34.673685
2079426.501393	0.060451	7.793939	0.038721	12.218572	0.181362	0.091137	12.405938	0.090784	0.090918	3.629606	1.210224	1.154195	29.500000	7.460000	34.673685
2079432.499736	0.062930	7.794605	0.038759	12.217589	0.181789	0.091141	12.407840	0.090618	0.090909	3.635638	1.212277	1.156389	29.500000	7.460000	34.673685
2079438.500079	0.039593	7.793532	0.038696	12.214638	0.181828	0.091154	12.412970	0.090073	0.090887	3.641559	1.214330	1.158566	29.500000	7.460000	34.673685
2079444.499422	0.062070	7.791932	0.038604	12.210842	0.182041	0.091170	12.418173	0.091692	0.090865	3.647436	1.214725	1.160700	29.500000	7.460000	34.673685
2079450.499765	0.053575	7.792871	0.038657	12.210367	0.181797	0.091172	12.419959	0.090950	0.090857	3.653440	1.218516	1.162879	29.500000	7.460000	34.673685
2079456.500109	-0.019599	7.791557	0.038583	12.212606	0.182120	0.091162	12.417868	0.089307	0.090866	3.659418	1.219779	1.165053	29.500000	7.460000	34.673685
2079462.499452	0.068923	7.792245	0.038623	12.213242	0.181347	0.091160	12.419006	0.091107	0.090861	3.665414	1.222306	1.167216	29.500000	7.460000	34.673685
2079468.499795	0.023906	7.791525	0.038582	12.212708	0.181986	0.091162	12.423462	0.090602	0.090842	3.671410	1.224754	1.169356	29.500000	7.460000	34.673685
2079474.499138	-0.009180	7.791353	0.038574	12.216139	0.180454	0.091147	12.425473	0.089907	0.090833	3.677443	1.226097	1.171537	29.500000	7.460000	34.673685
2079480.499481	0.091044	7.789648	0.038479	12.219549	0.181812	0.091132	12.423933	0.090413	0.090840	3.683575	1.229730	1.173718	29.500000	7.460000	34.673685
2079486.499825	0.032614	7.789489	0.038470	12.219297	0.181331	0.091133	12.426827	0.092410	0.090827	3.689617	1.232336	1.175908	29.500000	7.460000	34.673685
2079492.499167	0.075586	7.789898	0.038494	12.221951	0.182120	0.091122	12.427687	0.091115	0.090824	3.695759	1.233599	1.178064	29.500000	7.460000	34.673685
2079498.499511	-0.011880	7.789780	0.038487	12.219756	0.182618	0.091131	12.431172	0.090807	0.090809	3.701657	1.236047	1.180260	29.500000	7.460000	34.673685
2079504.501854	0.002068	7.789687	0.038482	12.220890	0.182112	0.091126	12.431927	0.090776	0.090806	3.707800	1.238496	1.182471	29.500000	7.460000	34.673685
2079510.499197	-0.013040	7.790558	0.038532	12.221263	0.182231	0.091125	12.433755	0.092315	0.090798	3.713924	1.241102	1.184683	29.500000	7.460000	34.673685
2079516.499540	0.059520	7.789699	0.038484	12.222654	0.179925	0.091119	12.434129	0.090152	0.090796	3.720099	1.243629	1.186865	29.500000	7.460000	34.673685
2079522.499884	-0.009654	7.788516	0.038419	12.226997	0.181994	0.091100	12.433994	0.091084	0.090797	3.726298	1.246235	1.189097	29.500000	7.460000	34.673685
2079528.499227	0.074031	7.787586	0.038365	12.224496	0.182310	0.091111	12.435893	0.090555	0.090788	3.732382	1.247419	1.191327	29.500000	7.460000	34.673685
2079534.499570	0.086615	7.787676	0.038369	12.223079	0.182168	0.091117	12.439084	0.090634	0.090775	3.738444	1.249867	1.193537	29.500000	7.460000	34.673685
2079540.501913	0.070020	7.788286	0.038404	12.222711	0.181141	0.091119	12.438015	0.091036	0.090779	3.744509	1.251131	1.195700	29.500000	7.460000	34.673685
2079546.499256	0.048664	7.787405	0.038353	12.221673	0.182270	0.091123	12.440870	0.090784	0.090767	3.750470	1.253895	1.197906	29.500000	7.460000	34.673685
2079552.499599	0.079099	7.786096	0.038280	12.222773	0.181844	0.091118	12.442620	0.090602	0.090759	3.756680	1.256264	1.200142	29.500000	7.460000	34.673685
2079558.499943	0.007784	7.785860	0.038267	12.223639	0.184102	0.091115	12.442991	0.091021	0.090758	3.762920	1.259265	1.202353	29.500000	7.460000	34.673685
2079564.499286	0.093239	7.785262	0.038234	12.225629	0.181276	0.091106	12.442608	0.090736	0.090760	3.769173	1.261713	1.204593	29.500000	7.460000	34.673685
2079570.499629	0.060815	7.783313	0.038126	12.229296	0.182128	0.091090	12.444143	0.090539	0.090753	3.775375	1.263450	1.206834	29.500000	7.460000	34.673685
2079576.499972	3.932049E-5	7.782942	0.038107	12.232600	0.181465	0.091076	12.444595	0.089639	0.090751	3.781678	1.264793	1.209077	29.500000	7.460000	34.673685
2079582.499315	0.090855	7.783470	0.038136	12.232840	0.181662	0.091075	12.447735	0.090492	0.090737	3.787862	1.266057	1.211312	29.500000	7.460000	34.673685
2079588.499659	0.069310	7.782977	0.038110	12.235697	0.181433	0.091062	12.446150	0.092497	0.090744	3.794141	1.268347	1.213515	29.500000	7.460000	34.673685
2079594.500001	0.090760	7.782098	0.038062	12.238606	0.179854	0.091050	12.445059	0.090192	0.090749	3.800430	1.270874	1.215758	29.500000	7.460000	34.673685
2079600.499345	0.018379	7.782111	0.038063	12.239316	0.180810	0.091047	12.444394	0.092307	0.090752	3.806567	1.272216	1.218008	29.500000	7.460000	34.673685
2079606.499688	0.074220	7.783176	0.038124	12.239428	0.181536	0.091046	12.446574	0.090981	0.090742	3.812716	1.273480	1.220232	29.500000	7.460000	34.673685
2079612.500031	0.052525	7.783925	0.038165	12.238770	0.181797	0.091049	12.448241	0.089260	0.090735	3.818766	1.276086	1.222393	29.500000	7.460000	34.673685
2079618.499374	0.076699	7.784359	0.038191	12.241040	0.181860	0.091039	12.445830	0.090760	0.090746	3.824797	1.278534	1.224586	29.500000	7.460000	34.673685
2079624.499718	0.051941	7.784778	0.038213	12.237734	0.179744	0.091054	12.447752	0.092221	0.090737	3.830755	1.280982	1.226781	29.500000	7.460000	34.673685
2079630.500061	0.008771	7.783847	0.038161	12.238243	0.181481	0.091051	12.450155	0.090689	0.090727	3.836877	1.283667	1.228954	29.500000	7.460000	34.673685
2079636.504404	0.050622	7.784461	0.038196	12.240020	0.181923	0.091044	12.448272	0.091392	0.090735	3.842935	1.284773	1.231163	29.500000	7.460000	34.673685
2079642.499747	0.003482	7.782107	0.038062	12.238118	0.181844	0.091052	12.451237	0.090594	0.090722	3.848938	1.286036	1.233358	29.500000	7.460000	34.673685
2079648.500090	0.081862	7.780574	0.037976	12.240120	0.182215	0.091043	12.452007	0.090357	0.090719	3.855053	1.287300	1.235512	29.500000	7.460000	34.673685
2079654.499434	0.059291	7.782427	0.038082	12.241418	0.180115	0.091038	12.453123	0.088857	0.090714	3.861066	1.288326	1.237709	29.500000	7.460000	34.673685
2079660.501777	0.089718	7.782773	0.038102	12.241885	0.181654	0.091036	12.452356	0.090428	0.090718	3.866966	1.289590	1.239803	29.500000	7.460000	34.673685
2079666.500120	0.029503	7.782039	0.038060	12.241438	0.182097	0.091038	12.454821	0.089339	0.090707	3.872705	1.290696	1.241921	29.500000	7.460000	34.673685
2079672.499463	0.091502	7.780659	0.037982	12.242431	0.181552	0.091033	12.455594	0.091092	0.090704	3.878537	1.293065	1.243985	29.500000	7.460000	34.673685
2079678.499806	0.071828	7.780269	0.037961	12.242929	0.181639	0.091031	12.455524	0.089339	0.090704	3.884217	1.294249	1.246070	29.500000	7.460000	34.673685
2079684.500149	-0.011193	7.778939	0.037888	12.247518	0.181497	0.091011	12.452860	0.090294	0.090715	3.890090	1.296382	1.248109	29.500000	7.460000	34.673685
2079690.502493	0.036956	7.777540	0.037810	12.249790	0.181757	0.091002	12.453420	0.090626	0.090713	3.895739	1.298988	1.250162	29.500000	7.460000	34.673685
2079696.499836	-0.006678	7.777193	0.037791	12.250943	0.180107	0.090997	12.453681	0.090026	0.090712	3.901486	1.301515	1.252228	29.500000	7.460000	34.673685
2079702.499179	-0.002700	7.776368	0.037744	12.250294	0.181307	0.090999	12.455354	0.090744	0.090705	3.907136	1.302620	1.254247	29.500000	7.460000	34.673685
2079708.499522	0.033545	7.776186	0.037733	12.249237	0.181915	0.091004	12.455703	0.091321	0.090703	3.912729	1.304042	1.256283	29.500000	7.460000	34.673685
2079714.500865	0.091936	7.775082	0.037670	12.248831	0.181962	0.091006	12.455016	0.091202	0.090706	3.918242	1.305621	1.258317	29.500000	7.460000	34.673685
2079720.499208	0.083544	7.774346	0.037627	12.246777	0.182136	0.091015	12.455447	0.091644	0.090704	3.923653	1.305226	1.260298	29.500000	7.460000	34.673685
2079726.499552	0.045712	7.774981	0.037662	12.244490	0.182176	0.091024	12.459588	0.088960	0.090686	3.928721	1.306253	1.262126	29.500000	7.460000	34.673685
2079732.499895	0.072862	7.774130	0.037614	12.244922	0.181094	0.091023	12.459459	0.090713	0.090687	3.934037	1.308859	1.264078	29.500000	7.460000	34.673685
2079738.499238	0.092679	7.775515	0.037694	12.246940	0.182294	0.091014	12.461896	0.090807	0.090676	3.939476	1.310044	1.266023	29.500000	7.460000	34.673685
2079744.499581	0.059528	7.775341	0.037685	12.248256	0.181331	0.091008	12.463869	0.090689	0.090668	3.944952	1.313834	1.267990	29.500000	7.460000	34.673685
2079750.499924	0.066538	7.775490	0.037692	12.246549	0.183565	0.091016	12.468056	0.091163	0.090650	3.950402	1.317546	1.269983	29.500000	7.460000	34.673685
2079756.499268	-0.019323	7.774318	0.037625	12.244972	0.181654	0.091022	12.469465	0.090728	0.090644	3.955921	1.321337	1.271999	29.500000	7.460000	34.673685
2079762.499611	0.074852	7.774323	0.037625	12.245235	0.180273	0.091021	12.471720	0.090918	0.090634	3.961589	1.324969	1.274048	29.500000	7.460000	34.673685
2079768.499954	0.054112	7.774457	0.037632	12.242922	0.181544	0.091031	12.474119	0.090839	0.090624	3.967281	1.330023	1.276136	29.500000	7.460000	34.673685
2079774.499297	0.057183	7.774976	0.037661	12.243745	0.181394	0.091028	12.478482	0.090381	0.090605	3.973193	1.333893	1.278267	29.500000	7.460000	34.673685
2079780.499640	0.017124	7.776067	0.037723	12.243539	0.181236	0.091029	12.477825	0.091115	0.090608	3.979224	1.339105	1.280416	29.500000	7.460000	34.673685
2079786.499983	0.028501	7.776808	0.037764	12.241192	0.183573	0.091039	12.481792	0.090302	0.090591	3.985284	1.342580	1.282637	29.500000	7.460000	34.673685
2079792.499327	0.087342	7.776877	0.037769	12.243143	0.181244	0.091030	12.482363	0.091676	0.090588	3.991556	1.346292	1.284885	29.500000	7.460000	34.673685
2079798.499670	0.001784	7.777303	0.037793	12.244101	0.181741	0.091026	12.481955	0.090239	0.090590	3.997881	1.350477	1.287163	29.500000	7.460000	34.673685
2079804.500013	0.036435	7.776608	0.037753	12.242282	0.181923	0.091034	12.484406	0.091510	0.090580	4.004070	1.353873	1.289463	29.500000	7.460000	34.673685
2079810.499356	0.031714	7.777557	0.037806	12.240897	0.181931	0.091040	12.487236	0.090476	0.090568	4.010454	1.356953	1.291790	29.500000	7.460000	34.673685
2079816.499699	-0.012345	7.777412	0.037797	12.238889	0.181797	0.091049	12.489608	0.090500	0.090557	4.016868	1.360112	1.294135	29.500000	7.460000	34.673685
2079822.500042	0.008526	7.778319	0.037848	12.239359	0.180304	0.091047	12.489052	0.089971	0.090560	4.023003	1.361375	1.296349	29.500000	7.460000	34.673685
2079828.499386	0.043730	7.778437	0.037856	12.240818	0.179839	0.091040	12.490710	0.090365	0.090553	4.028319	1.365087	1.298257	29.500000	7.460000	34.673685
2079834.499729	0.031066	7.777988	0.037830	12.239589	0.181315	0.091046	12.493506	0.090026	0.090541	4.034797	1.367851	1.300617	29.500000	7.460000	34.673685
