LabVIEW Measurement	
Writer_Version	2
Reader_Version	2
Separator	Tab
Decimal_Separator	.
Multi_Headings	No
X_Columns	One
Time_Pref	Absolute
Operator	MOATS
Date	2019/09/27
Time	09:42:58.7815060615539550781
***End_of_Header***	
	
Channels	15															
Samples	1	1	1	1	1	1	1	1	1	1	1	1	1	1	1	
Date	2019/10/29	2019/10/29	2019/10/29	2019/10/29	2019/10/29	2019/10/29	2019/10/29	2019/10/29	2019/10/29	2019/10/29	2019/10/29	2019/10/29	2019/10/29	2019/10/29	2019/10/29	
Time	09:43:16.6820445060729980469	09:43:16.6820445060729980469	09:43:16.6820445060729980469	09:43:16.6820445060729980469	09:43:16.6820445060729980469	09:43:16.6820445060729980469	09:43:16.6820445060729980469	09:43:16.6820445060729980469	09:43:16.6820445060729980469	09:43:16.6820445060729980469	09:43:16.6820445060729980469	09:43:16.6820445060729980469	09:43:16.6820445060729980469	09:43:16.6820445060729980469	09:43:16.6820445060729980469	
X_Dimension	Time	Time	Time	Time	Time	Time	Time	Time	Time	Time	Time	Time	Time	Time	Time	
X0	2.7648179005384445E+6	2.7648179005384445E+6	2.7648179005384445E+6	2.7648179005384445E+6	2.7648179005384445E+6	2.7648179005384445E+6	2.7648179005384445E+6	2.7648179005384445E+6	2.7648179005384445E+6	2.7648179005384445E+6	2.7648179005384445E+6	2.7648179005384445E+6	2.7648179005384445E+6	2.7648179005384445E+6	2.7648179005384445E+6	
Delta_X	1.000000	1.000000	1.000000	1.000000	1.000000	1.000000	1.000000	1.000000	1.000000	1.000000	1.000000	1.000000	1.000000	1.000000	1.000000	
***End_of_Header***																
X_Value	Untitled	Untitled 1	Untitled 2	Untitled 3	Untitled 4	Untitled 5	Untitled 6	Untitled 7	Untitled 8	Untitled 9	Untitled 10	Untitled 11	Untitled 12	Untitled 13	Untitled 14	Comment
2764817.900538	7.689969	0.093431	0.091572	14.123154	0.164982	0.080192	12.927031	0.084218	0.083997	8.605001	2.211592	2.208737	28.800000	7.500000	31.622777
2764847.900254	7.690213	0.087620	0.091585	14.119839	0.163750	0.080205	12.928202	0.084147	0.083992	8.606718	2.210408	2.209112	28.800000	7.500000	31.622777
2764877.899970	7.690543	0.087202	0.091602	14.118542	0.162613	0.080210	12.927212	0.083341	0.083996	8.607365	2.209460	2.209254	28.800000	7.500000	31.622777
2764907.900686	7.690968	0.096226	0.091626	14.116363	0.164169	0.080218	12.928345	0.084384	0.083991	8.607475	2.209460	2.209298	28.800000	7.500000	31.622777
2764937.900402	7.691494	0.088173	0.091655	14.114558	0.163411	0.080225	12.930531	0.084013	0.083983	8.606150	2.205670	2.209051	28.800000	7.500000	31.622777
2764967.900118	7.691487	0.090834	0.091655	14.114983	0.164800	0.080223	12.932171	0.083523	0.083976	8.604932	2.205749	2.208804	28.800000	7.500000	31.622777
2764997.900834	7.691640	0.085694	0.091663	14.114906	0.164398	0.080223	12.931478	0.083160	0.083979	8.604517	2.208434	2.208723	28.800000	7.500000	31.622777
2765027.900549	7.692247	0.095452	0.091698	14.115093	0.163821	0.080223	12.929399	0.084928	0.083987	8.603737	2.205828	2.208566	28.800000	7.500000	31.622777
2765057.900266	7.692380	0.094892	0.091704	14.111766	0.164208	0.080235	12.927910	0.083831	0.083993	8.603087	2.206065	2.208470	28.800000	7.500000	31.622777
2765087.899981	7.692631	0.098389	0.091716	14.108193	0.164311	0.080248	12.925888	0.083949	0.084001	8.601828	2.206934	2.208256	28.800000	7.500000	31.622777
2765117.900697	7.693009	0.092057	0.091741	14.113470	0.164634	0.080229	12.921922	0.082813	0.084017	8.600880	2.206855	2.208013	28.800000	7.500000	31.622777
2765147.900413	7.693314	0.089144	0.091756	14.109706	0.164050	0.080243	12.920052	0.084297	0.084024	8.598866	2.209302	2.207651	28.800000	7.500000	31.622777
2765177.900129	7.693610	0.094244	0.091772	14.107457	0.164516	0.080251	12.918077	0.083784	0.084032	8.598841	2.211513	2.207669	28.800000	7.500000	31.622777
2765207.900845	7.693437	0.085086	0.091761	14.107196	0.164895	0.080252	12.915361	0.084068	0.084043	8.599559	2.210329	2.207815	28.800000	7.500000	31.622777
2765237.900561	7.693547	0.094821	0.091763	14.097045	0.163869	0.080290	12.923065	0.084226	0.084012	8.599754	2.209065	2.207956	28.800000	7.500000	31.622777
2765267.900277	7.693335	0.097971	0.091749	14.094263	0.164224	0.080301	12.921907	0.084486	0.084017	8.601217	2.209539	2.208276	28.800000	7.500000	31.622777
2765297.899993	7.693037	0.089760	0.091731	14.092521	0.164319	0.080307	12.923331	0.083476	0.084011	8.603068	2.211592	2.208660	28.800000	7.500000	31.622777
2765327.900709	7.693079	0.090739	0.091734	14.094370	0.164090	0.080300	12.922562	0.084005	0.084014	8.604961	2.210408	2.209020	28.800000	7.500000	31.622777
2765357.900424	7.692747	0.087849	0.091716	14.095146	0.164050	0.080297	12.921434	0.084289	0.084019	8.606824	2.211592	2.209383	28.800000	7.500000	31.622777
2765387.900140	7.692187	0.087920	0.091688	14.103701	0.164327	0.080265	12.911704	0.083910	0.084057	8.608674	2.209144	2.209663	28.800000	7.500000	31.622777
2765417.900856	7.691624	0.089886	0.091657	14.104978	0.164808	0.080261	12.906880	0.084344	0.084076	8.610189	2.210487	2.209953	28.800000	7.500000	31.622777
2765447.900572	7.690819	0.091592	0.091611	14.105007	0.164058	0.080260	12.903909	0.084170	0.084088	8.611820	2.210487	2.210277	28.800000	7.500000	31.622777
2765477.900288	7.690218	0.097078	0.091577	14.104398	0.163987	0.080263	12.903597	0.083926	0.084089	8.612890	2.213013	2.210496	28.800000	7.500000	31.622777
2765507.900004	7.689733	0.083681	0.091549	14.104794	0.163790	0.080261	12.903977	0.084068	0.084088	8.613076	2.211671	2.210529	28.800000	7.500000	31.622777
2765537.900720	7.689274	0.089594	0.091523	14.104945	0.164050	0.080261	12.903491	0.084873	0.084090	8.613756	2.210723	2.210663	28.800000	7.500000	31.622777
2765567.900436	7.688739	0.092697	0.091491	14.102446	0.165069	0.080270	12.905072	0.084557	0.084083	8.614280	2.210487	2.210792	28.800000	7.500000	31.622777
2765597.900152	7.688371	0.097055	0.091470	14.102269	0.163569	0.080271	12.906885	0.083839	0.084076	8.614332	2.211039	2.210804	28.800000	7.500000	31.622777
2765627.900867	7.687745	0.090273	0.091436	14.104876	0.164137	0.080261	12.902639	0.084684	0.084093	8.613402	2.209223	2.210592	28.800000	7.500000	31.622777
2765657.900584	7.687014	0.089870	0.091394	14.104499	0.165187	0.080262	12.901782	0.084407	0.084096	8.613404	2.209144	2.210597	28.800000	7.500000	31.622777
2765687.900300	7.686736	0.093818	0.091378	14.103485	0.164255	0.080266	12.901875	0.083199	0.084096	8.613608	2.211592	2.210649	28.800000	7.500000	31.622777
2765717.900015	7.686094	0.097836	0.091339	14.099150	0.166561	0.080282	12.903732	0.084044	0.084089	8.613495	2.211750	2.210669	28.800000	7.500000	31.622777
2765747.900731	7.686003	0.089689	0.091335	14.101854	0.163837	0.080272	12.899869	0.084281	0.084104	8.614387	2.213408	2.210820	28.800000	7.500000	31.622777
2765777.900447	7.686027	0.095547	0.091337	14.102375	0.164682	0.080270	12.899529	0.084020	0.084105	8.614842	2.210487	2.210904	28.800000	7.500000	31.622777
2765807.900163	7.686243	0.093013	0.091348	14.101105	0.164484	0.080275	12.899391	0.084518	0.084106	8.614360	2.210487	2.210821	28.800000	7.500000	31.622777
2765837.900879	7.686146	0.084770	0.091344	14.104125	0.162511	0.080264	12.896709	0.083223	0.084116	8.614108	2.209223	2.210740	28.800000	7.500000	31.622777
2765867.900595	7.685721	0.091197	0.091320	14.102850	0.163719	0.080269	12.897157	0.084723	0.084115	8.614103	2.211908	2.210753	28.800000	7.500290	31.601658
2765897.900311	7.685437	0.096297	0.091303	14.101157	0.164658	0.080275	12.897836	0.083855	0.084112	8.614722	2.210408	2.210893	28.800000	7.500679	31.573354
2765927.900027	7.685135	0.092097	0.091283	14.097028	0.164042	0.080290	12.900271	0.083807	0.084102	8.615426	2.214119	2.211076	28.800000	7.501069	31.545050
2765957.900743	7.685079	0.097252	0.091275	14.088279	0.163624	0.080323	12.903496	0.083973	0.084089	8.615048	2.210644	2.211087	28.800000	7.501457	31.516866
2765987.900458	7.684925	0.083855	0.091265	14.084749	0.164832	0.080336	12.903689	0.084328	0.084089	8.615582	2.214197	2.211229	28.800000	7.501846	31.488638
2766017.900174	7.684718	0.083926	0.091254	14.086759	0.164729	0.080329	12.900089	0.084439	0.084103	8.616844	2.210566	2.211460	28.800000	7.502235	31.460428
2766047.899890	7.684515	0.085584	0.091239	14.081549	0.163884	0.080348	12.900982	0.084747	0.084099	8.616589	2.213250	2.211461	28.800000	7.502623	31.432325
2766077.900606	7.684525	0.094039	0.091239	14.079215	0.164121	0.080357	12.900295	0.084257	0.084102	8.616476	2.213092	2.211463	28.800000	7.503013	31.404166
2766107.900322	7.684340	0.085102	0.091232	14.085759	0.164753	0.080333	12.896848	0.083491	0.084116	8.617783	2.210566	2.211657	28.800000	7.503402	31.376042
2766137.900038	7.683989	0.086870	0.091212	14.087614	0.164398	0.080326	12.892761	0.084502	0.084132	8.617737	2.209302	2.211629	28.800000	7.503791	31.347931
2766167.900754	7.683709	0.085899	0.091197	14.088223	0.163798	0.080323	12.894622	0.084202	0.084125	8.617260	2.210960	2.211527	28.800000	7.504179	31.319924
2766197.900470	7.683869	0.088260	0.091210	14.094353	0.165195	0.080300	12.891333	0.084463	0.084138	8.618034	2.213013	2.211620	28.800000	7.504568	31.291875
2766227.900186	7.683639	0.088031	0.091198	14.097196	0.164524	0.080290	12.890685	0.084518	0.084140	8.619097	2.210566	2.211803	28.800000	7.504958	31.263852
2766257.899901	7.683952	0.092997	0.091216	14.098486	0.164579	0.080285	12.892028	0.084226	0.084135	8.619209	2.211829	2.211813	28.800000	7.505346	31.235911
2766287.900618	7.683606	0.095649	0.091197	14.098245	0.165006	0.080286	12.892032	0.083752	0.084135	8.619636	2.211829	2.211899	28.800000	7.505735	31.207928
2766317.900333	7.683228	0.087597	0.091172	14.093539	0.164074	0.080303	12.892159	0.083870	0.084134	8.618828	2.213171	2.211786	28.800000	7.506124	31.179968
2766347.900049	7.682957	0.097442	0.091155	14.090516	0.164737	0.080315	12.889313	0.084968	0.084146	8.618984	2.209460	2.211847	28.800000	7.506512	31.152123
2766377.900765	7.682844	0.089002	0.091150	14.092420	0.164113	0.080308	12.887064	0.084155	0.084154	8.617217	2.208434	2.211477	28.800000	7.506902	31.124204
2766407.900481	7.682780	0.092231	0.091143	14.085400	0.162669	0.080334	12.884817	0.084036	0.084163	8.615466	2.210881	2.211200	28.800000	7.507291	31.096329
2766437.900197	7.682807	0.090731	0.091142	14.081623	0.163505	0.080348	12.887083	0.083926	0.084154	8.614627	2.210881	2.211070	28.800000	7.507680	31.068481
2766467.899913	7.682792	0.084731	0.091141	14.079987	0.164287	0.080354	12.888028	0.083255	0.084151	8.615467	2.211039	2.211254	28.800000	7.508068	31.040725
2766497.900629	7.683086	0.094789	0.091157	14.079472	0.164295	0.080356	12.888546	0.083870	0.084149	8.613599	2.207249	2.210887	28.800000	7.508457	31.012922
2766527.900345	7.682985	0.088828	0.091150	14.076476	0.164232	0.080367	12.889530	0.085023	0.084145	8.610593	2.208986	2.210319	28.800000	7.508846	30.985155
2766557.900061	7.683356	0.091284	0.091171	14.077604	0.163853	0.080363	12.887352	0.085394	0.084153	8.608879	2.208671	2.209966	28.800000	7.509236	30.957388
2766587.900776	7.683344	0.095452	0.091172	14.080044	0.162842	0.080354	12.883711	0.084407	0.084168	8.607883	2.208592	2.209743	28.800000	7.509624	30.929730
2766617.900493	7.683451	0.092421	0.091177	14.078396	0.164887	0.080360	12.882643	0.083649	0.084172	8.605239	2.208750	2.209234	28.800000	7.510013	30.902018
2766647.900208	7.683735	0.097228	0.091194	14.079372	0.164532	0.080357	12.882819	0.084076	0.084171	8.603580	2.208513	2.208894	28.800000	7.510402	30.874344
2766677.899924	7.684093	0.096984	0.091211	14.073792	0.164879	0.080378	12.883912	0.083586	0.084167	8.602544	2.207328	2.208744	28.800000	7.510790	30.846761
2766707.900640	7.684448	0.092610	0.091235	14.079635	0.164863	0.080356	12.881566	0.084739	0.084176	8.602230	2.208434	2.208622	28.800000	7.511180	30.819125
2766737.900356	7.684236	0.092807	0.091220	14.074642	0.164642	0.080374	12.881829	0.083705	0.084175	8.601610	2.207012	2.208549	28.800000	7.511569	30.791520
2766767.900072	7.684205	0.091939	0.091219	14.076567	0.164319	0.080367	12.879378	0.083855	0.084185	8.600764	2.210960	2.208362	28.800000	7.511957	30.764023
2766797.900788	7.684870	0.084368	0.091256	14.075344	0.164555	0.080372	12.879792	0.083926	0.084183	8.601714	2.212066	2.208564	28.800000	7.512346	30.736439
2766827.900504	7.684948	0.094315	0.091265	14.083615	0.163995	0.080341	12.876807	0.083649	0.084195	8.603948	2.210881	2.208925	28.800000	7.512735	30.708917
2766857.900219	7.685081	0.089199	0.091272	14.081704	0.165566	0.080348	12.878192	0.084368	0.084190	8.605119	2.212066	2.209177	28.800000	7.513125	30.681418
2766887.899936	7.684259	0.096834	0.091229	14.089160	0.164121	0.080320	12.877686	0.083626	0.084192	8.604683	2.208355	2.209015	28.800000	7.513513	30.654004
2766917.900651	7.684155	0.092484	0.091229	14.099456	0.165258	0.080281	12.879027	0.084013	0.084186	8.606529	2.209618	2.209279	28.800000	7.513902	30.626542
2766947.900367	7.684416	0.095184	0.091248	14.107910	0.164121	0.080250	12.875660	0.084360	0.084200	8.608021	2.210960	2.209492	28.800000	7.514291	30.599115
2766977.900083	7.684799	0.095926	0.091272	14.112407	0.164366	0.080233	12.877066	0.083886	0.084194	8.608866	2.209697	2.209615	28.800000	7.514679	30.571794
2767007.900799	7.685065	0.091678	0.091290	14.118697	0.163411	0.080209	12.875605	0.085647	0.084200	8.610273	2.211039	2.209832	28.800000	7.515069	30.544391
2767037.900515	7.685190	0.092342	0.091296	14.116390	0.164848	0.080218	12.877657	0.082773	0.084192	8.611323	2.211039	2.210063	28.800000	7.515458	30.517043
2767067.900231	7.685433	0.089713	0.091307	14.109529	0.164713	0.080243	12.876473	0.084147	0.084196	8.611986	2.212066	2.210264	28.800000	7.515847	30.489718
2767097.899947	7.685375	0.086823	0.091299	14.100726	0.165163	0.080276	12.878669	0.084557	0.084188	8.612131	2.213408	2.210381	28.800000	7.516235	30.462477
2767127.900663	7.685348	0.084352	0.091291	14.089081	0.163687	0.080320	12.880851	0.084036	0.084179	8.612200	2.213408	2.210513	28.800000	7.516624	30.435192
2767157.900379	7.685175	0.084589	0.091277	14.081139	0.164437	0.080350	12.883024	0.084210	0.084170	8.612753	2.210960	2.210702	28.800000	7.517013	30.407933
2767187.900095	7.685482	0.097639	0.091293	14.077730	0.163948	0.080363	12.881260	0.084502	0.084177	8.614039	2.213487	2.210992	28.800000	7.517402	30.380689
2767217.900810	7.686134	0.083878	0.091330	14.077561	0.165377	0.080363	12.880820	0.084044	0.084179	8.615101	2.212224	2.211205	28.800000	7.517791	30.353540
2767247.900527	7.686467	0.095689	0.091349	14.078437	0.165290	0.080360	12.879129	0.084747	0.084186	8.616392	2.212145	2.211453	28.800000	7.518180	30.326354
2767277.900242	7.686395	0.083997	0.091348	14.084316	0.164634	0.080338	12.873652	0.085047	0.084207	8.618588	2.213566	2.211833	28.800000	7.518569	30.299200
2767307.899958	7.686628	0.085520	0.091361	14.082817	0.164927	0.080344	12.870504	0.083657	0.084220	8.619176	2.210960	2.211963	28.800000	7.518957	30.272121
2767337.900674	7.686831	0.084541	0.091373	14.084948	0.164500	0.080336	12.869044	0.083744	0.084226	8.619251	2.210881	2.211956	28.800000	7.519346	30.245000
2767367.900390	7.687100	0.091797	0.091386	14.079696	0.165258	0.080355	12.869099	0.084336	0.084226	8.618673	2.208513	2.211893	28.800000	7.519736	30.217910
2767397.900106	7.687580	0.083697	0.091412	14.077052	0.164713	0.080365	12.868609	0.083902	0.084227	8.617433	2.209855	2.211674	28.800000	7.520123	30.190931
2767427.900822	7.688152	0.084944	0.091442	14.072599	0.163040	0.080382	12.868625	0.083902	0.084227	8.614642	2.207328	2.211164	28.800000	7.520513	30.163867
2767457.900537	7.688366	0.090968	0.091454	14.072291	0.164871	0.080383	12.869081	0.084699	0.084226	8.612255	2.209539	2.210692	28.800000	7.520902	30.136848
2767487.900254	7.688384	0.089428	0.091453	14.068070	0.164642	0.080399	12.868671	0.084186	0.084227	8.611568	2.211434	2.210597	28.800000	7.521291	30.109851
2767517.899970	7.688661	0.084328	0.091469	14.068808	0.165187	0.080396	12.868138	0.084636	0.084229	8.610315	2.208513	2.210340	28.800000	7.521680	30.082941
2767547.900685	7.689428	0.090597	0.091510	14.062899	0.165842	0.080418	12.871231	0.084455	0.084217	8.608521	2.210644	2.210043	28.800000	7.522069	30.056001
2767577.900401	7.689136	0.097505	0.091493	14.061986	0.164169	0.080422	12.871254	0.083934	0.084217	8.605712	2.204328	2.209493	28.800000	7.522458	30.029083
2767607.900117	7.689295	0.097268	0.091502	14.062609	0.163790	0.080420	12.870675	0.083965	0.084219	8.600240	2.199275	2.208398	28.800000	7.522846	30.002264
2767637.900833	7.689490	0.084747	0.091517	14.068927	0.165463	0.080396	12.871307	0.084391	0.084217	8.593632	2.199591	2.207015	28.800000	7.523235	29.975371
2767667.900549	7.689142	0.096747	0.091494	14.064697	0.166474	0.080412	12.870784	0.083610	0.084219	8.589408	2.203617	2.206219	28.800000	7.523625	29.948518
2767697.900265	7.689016	0.086476	0.091491	14.071100	0.163774	0.080388	12.867030	0.084810	0.084234	8.586727	2.203459	2.205623	28.800000	7.524012	29.921787
2767727.899981	7.688783	0.084573	0.091476	14.068357	0.165629	0.080398	12.868770	0.084344	0.084227	8.585789	2.207328	2.205464	28.800000	7.524402	29.894969
2767757.900697	7.688693	0.098460	0.091470	14.067503	0.164477	0.080401	12.871134	0.085181	0.084217	8.585411	2.208592	2.205397	28.800000	7.524791	29.868195
2767787.900413	7.688911	0.095018	0.091481	14.063106	0.164705	0.080418	12.870884	0.084202	0.084218	8.584676	2.209697	2.205295	28.800000	7.525180	29.841453
2767817.900128	7.688953	0.098200	0.091486	14.069456	0.165156	0.080394	12.865939	0.084991	0.084238	8.584631	2.209460	2.205222	28.800000	7.525568	29.814804
2767847.900845	7.689087	0.085070	0.091495	14.071705	0.165140	0.080385	12.865232	0.085378	0.084241	8.585063	2.209618	2.205286	28.800000	7.525957	29.788081
2767877.900560	7.688854	0.090186	0.091483	14.074886	0.164390	0.080373	12.863587	0.084336	0.084247	8.585923	2.212066	2.205427	28.800000	7.526347	29.761398
2767907.900276	7.689074	0.090399	0.091498	14.078195	0.164840	0.080361	12.860925	0.084226	0.084258	8.591337	2.210960	2.206469	28.800000	7.526735	29.734824
2767937.899992	7.689166	0.097868	0.091502	14.077813	0.164255	0.080362	12.860424	0.084494	0.084260	8.598276	2.210881	2.207854	28.800000	7.527124	29.708163
2767967.900708	7.688752	0.097844	0.091478	14.075533	0.164113	0.080371	12.864023	0.083870	0.084246	8.601986	2.208355	2.208615	28.800000	7.527513	29.681548
2767997.900424	7.688428	0.092634	0.091461	14.078524	0.164240	0.080360	12.861920	0.084218	0.084254	8.606015	2.212066	2.209390	28.800000	7.527901	29.655051
2768027.900140	7.688518	0.088110	0.091468	14.081448	0.165029	0.080349	12.861782	0.083713	0.084254	8.608351	2.209539	2.209823	28.800000	7.528291	29.628475
2768057.900856	7.688849	0.092942	0.091487	14.081431	0.164619	0.080349	12.861293	0.083981	0.084256	8.609528	2.210802	2.210058	28.800000	7.528680	29.601919
2768087.900572	7.688639	0.096700	0.091477	14.085197	0.165250	0.080335	12.857004	0.084163	0.084273	8.609593	2.208434	2.210032	28.800000	7.529068	29.575496
2768117.900288	7.689172	0.095815	0.091505	14.081434	0.165037	0.080349	12.857223	0.084628	0.084273	8.609828	2.209618	2.210117	28.800000	7.529457	29.549013
2768147.900003	7.689496	0.094876	0.091521	14.077287	0.164800	0.080364	12.858069	0.085047	0.084269	8.609135	2.210092	2.210021	28.800000	7.529847	29.522524
2768177.900719	7.689652	0.091315	0.091524	14.065741	0.164927	0.080408	12.861939	0.084163	0.084254	8.608709	2.208671	2.210051	28.800000	7.530236	29.496085
2768207.900435	7.689790	0.097086	0.091530	14.062755	0.164855	0.080419	12.862005	0.084005	0.084254	8.607040	2.208592	2.209749	28.800000	7.530625	29.469675
2768237.900151	7.689550	0.084952	0.091513	14.056463	0.166284	0.080443	12.864047	0.083870	0.084246	8.605560	2.209776	2.209518	28.800000	7.531013	29.443354
2768267.900867	7.689544	0.097268	0.091513	14.056313	0.165258	0.080443	12.862445	0.085126	0.084252	8.604705	2.207407	2.209350	28.800000	7.531402	29.416957
2768297.900583	7.689546	0.089799	0.091511	14.052812	0.164990	0.080456	12.862086	0.084549	0.084253	8.602759	2.204960	2.208995	28.800000	7.531791	29.390610
2768327.900299	7.690254	0.096589	0.091553	14.054954	0.164919	0.080448	12.862582	0.084155	0.084251	8.600535	2.206065	2.208533	28.800000	7.532179	29.364370
2768357.900015	7.690478	0.097292	0.091565	14.054725	0.165400	0.080449	12.859738	0.084241	0.084263	8.599533	2.206065	2.208336	28.800000	7.532569	29.338042
2768387.900731	7.690409	0.084470	0.091561	14.053803	0.165140	0.080453	12.861652	0.084739	0.084255	8.597983	2.206223	2.208037	28.800000	7.532957	29.311848
2768417.900446	7.690854	0.098594	0.091586	14.053457	0.164169	0.080454	12.861660	0.083815	0.084255	8.596131	2.207486	2.207671	28.800000	7.533346	29.285600
2768447.900162	7.690812	0.088884	0.091584	14.054618	0.163932	0.080450	12.861179	0.084320	0.084257	8.594934	2.206065	2.207421	28.800000	7.533735	29.259363
2768477.900878	7.690800	0.086041	0.091584	14.055646	0.164990	0.080446	12.857273	0.083997	0.084272	8.593913	2.207328	2.207208	28.800000	7.534125	29.233131
2768507.900594	7.690806	0.092160	0.091585	14.055790	0.164477	0.080445	12.855982	0.083957	0.084277	8.594014	2.209618	2.207228	28.800000	7.534512	29.207041
2768537.900310	7.691172	0.086949	0.091605	14.054162	0.165195	0.080451	12.853336	0.084107	0.084288	8.593860	2.208592	2.207213	28.800000	7.534902	29.180871
2768567.900026	7.691451	0.086870	0.091621	14.054486	0.165542	0.080450	12.851902	0.084226	0.084294	8.595025	2.212697	2.207441	28.800000	7.535291	29.154702
2768597.900742	7.691973	0.092507	0.091649	14.050907	0.164666	0.080463	12.853844	0.083570	0.084286	8.596455	2.208750	2.207762	28.800000	7.535679	29.128678
2768627.900458	7.692291	0.096250	0.091665	14.048021	0.164050	0.080474	12.855899	0.084202	0.084278	8.598076	2.211039	2.208115	28.800000	7.536068	29.102605
2768657.900174	7.692420	0.093502	0.091674	14.050606	0.164903	0.080465	12.854789	0.084170	0.084282	8.599343	2.209697	2.208341	28.800000	7.536457	29.076527
2768687.899889	7.692942	0.096028	0.091703	14.050419	0.165171	0.080465	12.853516	0.085173	0.084287	8.600925	2.210881	2.208658	28.800000	7.536846	29.050545
2768717.900606	7.693267	0.085047	0.091720	14.046821	0.165866	0.080479	12.855544	0.085149	0.084279	8.602671	2.210960	2.209040	28.800000	7.537235	29.024529
2768747.900321	7.694007	0.098373	0.091764	14.049787	0.165471	0.080468	12.854199	0.085355	0.084285	8.604743	2.210960	2.209424	28.800000	7.537624	28.998532
2768777.900037	7.693994	0.095744	0.091766	14.055568	0.165677	0.080446	12.853983	0.084344	0.084285	8.606383	2.209539	2.209692	28.800000	7.538014	28.972533
2768807.900753	7.694415	0.093818	0.091790	14.054523	0.164437	0.080450	12.852561	0.083539	0.084291	8.606745	2.209934	2.209774	28.800000	7.538401	28.946672
2768837.900469	7.694877	0.088023	0.091816	14.055342	0.165527	0.080447	12.856018	0.084352	0.084277	8.608074	2.208671	2.210030	28.800000	7.538791	28.920745
2768867.900185	7.695248	0.096021	0.091837	14.053769	0.165156	0.080453	12.855568	0.084952	0.084279	8.607264	2.210171	2.209884	28.800000	7.539180	28.894831
2768897.899901	7.695406	0.098421	0.091845	14.053351	0.164927	0.080454	12.852066	0.083484	0.084293	8.606712	2.209381	2.209779	28.800000	7.539568	28.869008
2768927.900617	7.695493	0.091915	0.091848	14.049279	0.165108	0.080470	12.850722	0.083602	0.084298	8.606064	2.208907	2.209691	28.800000	7.539957	28.843153
2768957.900333	7.695439	0.097726	0.091846	14.050265	0.164871	0.080466	12.850461	0.084510	0.084299	8.605630	2.208907	2.209594	28.800000	7.540346	28.817318
2768987.900049	7.695763	0.093897	0.091864	14.050466	0.164011	0.080465	12.847965	0.084573	0.084309	8.604979	2.207644	2.209462	28.800000	7.540735	28.791575
2769017.900764	7.695753	0.084091	0.091862	14.047136	0.164903	0.080478	12.847871	0.083870	0.084310	8.604573	2.213724	2.209416	28.800000	7.541124	28.765792
2769047.900480	7.695585	0.084960	0.091853	14.048271	0.166134	0.080473	12.849312	0.084731	0.084304	8.604996	2.211197	2.209488	28.800000	7.541513	28.740034
2769077.900197	7.695467	0.089642	0.091845	14.046756	0.164753	0.080479	12.848252	0.084241	0.084308	8.605201	2.208592	2.209544	28.800000	7.541902	28.714282
2769107.899912	7.695698	0.083815	0.091855	14.040032	0.164737	0.080504	12.849967	0.084020	0.084301	8.604835	2.208671	2.209539	28.800000	7.542290	28.688632
2769137.900628	7.695359	0.097607	0.091834	14.035943	0.165061	0.080520	12.850850	0.084991	0.084298	8.603624	2.208750	2.209339	28.800000	7.542679	28.662939
2769175.641787	7.695220	0.096171	0.091828	14.040317	0.165195	0.080503	12.846963	0.084486	0.084313	8.604084	2.210013	2.209387	28.800000	7.543244	28.625722
2769197.900060	7.695127	0.086420	0.091822	14.039796	0.165116	0.080505	12.847026	0.085047	0.084313	8.604214	2.210960	2.209418	28.800000	7.543244	28.625722
2769227.900776	7.694979	0.086839	0.091816	14.043005	0.164690	0.080493	12.844128	0.084005	0.084324	8.605032	2.211118	2.209548	28.800000	7.543871	28.584365
2769257.900492	7.694693	0.085828	0.091800	14.043750	0.164587	0.080490	12.844973	0.084991	0.084321	8.605637	2.212224	2.209661	28.800000	7.544261	28.558737
2769287.900208	7.694547	0.086405	0.091794	14.048077	0.162945	0.080474	12.841181	0.084644	0.084336	8.607506	2.211039	2.209990	28.800000	7.544649	28.533244
2769317.899923	7.694783	0.097497	0.091809	14.052525	0.164674	0.080457	12.838878	0.084873	0.084345	8.609548	2.209618	2.210352	28.800000	7.545039	28.507655
2769347.900640	7.694882	0.094118	0.091813	14.049005	0.165298	0.080471	12.839335	0.084084	0.084343	8.611155	2.212381	2.210708	28.800000	7.545428	28.482120
2769377.900355	7.695090	0.094710	0.091824	14.046948	0.164287	0.080478	12.841618	0.084549	0.084334	8.610187	2.210960	2.210535	28.800000	7.545816	28.456694
2769407.900071	7.695211	0.084541	0.091829	14.043385	0.165424	0.080492	12.843811	0.084755	0.084326	8.609487	2.207407	2.210430	28.800000	7.546205	28.431188
2769437.900787	7.695536	0.094876	0.091845	14.037574	0.164832	0.080514	12.848327	0.084691	0.084308	8.609475	2.212145	2.210487	28.800000	7.546593	28.405788
2769467.900503	7.695557	0.084865	0.091844	14.033807	0.165132	0.080528	12.850947	0.084952	0.084297	8.610164	2.209776	2.210662	28.800000	7.546983	28.380333
2769497.900219	7.695784	0.097126	0.091858	14.035349	0.164563	0.080522	12.845949	0.084336	0.084317	8.610176	2.209776	2.210649	28.800000	7.547372	28.354916
2769527.899935	7.696219	0.090944	0.091885	14.041522	0.164090	0.080499	12.843666	0.084084	0.084326	8.610372	2.210408	2.210626	28.800000	7.547760	28.329576
2769557.900651	7.696697	0.091142	0.091918	14.050118	0.164658	0.080466	12.837831	0.083918	0.084349	8.611042	2.210250	2.210673	28.800000	7.548149	28.304197
2769587.900367	7.697157	0.097244	0.091944	14.052023	0.165313	0.080459	12.835887	0.086215	0.084357	8.609322	2.210250	2.210312	28.800000	7.548538	28.278849
2769617.900083	7.697496	0.085670	0.091963	14.050101	0.164240	0.080467	12.835218	0.084226	0.084360	8.607982	2.209855	2.210064	28.800000	7.548928	28.253510
2769647.900798	7.697833	0.086697	0.091982	14.049422	0.164950	0.080469	12.837248	0.084076	0.084352	8.607443	2.211118	2.209964	28.800000	7.549316	28.228277
2769677.900515	7.697608	0.084715	0.091969	14.049605	0.165013	0.080468	12.837426	0.083681	0.084351	8.607762	2.210960	2.210025	28.800000	7.549705	28.202989
2769707.900230	7.697628	0.097134	0.091969	14.046868	0.165448	0.080479	12.835817	0.084747	0.084357	8.607919	2.212224	2.210085	28.800000	7.550094	28.177727
2769737.899946	7.697929	0.096802	0.091985	14.045732	0.165598	0.080483	12.834420	0.083902	0.084363	8.608731	2.210960	2.210257	28.800000	7.550482	28.152548
2769767.900662	7.698047	0.085149	0.091994	14.049142	0.164911	0.080470	12.830139	0.084794	0.084380	8.609178	2.208592	2.210312	28.800000	7.550872	28.127324
2769797.900378	7.698122	0.090944	0.091996	14.045221	0.165598	0.080485	12.830049	0.084486	0.084380	8.610511	2.212539	2.210618	28.800000	7.551261	28.102137
2769827.900094	7.698485	0.089239	0.092013	14.038254	0.165179	0.080511	12.831485	0.083736	0.084375	8.610383	2.211276	2.210661	28.800000	7.551649	28.077035
2769857.900810	7.698554	0.087952	0.092014	14.033393	0.165471	0.080529	12.834071	0.084478	0.084364	8.611007	2.212776	2.210834	28.800000	7.552038	28.051871
2769887.900526	7.698505	0.095460	0.092009	14.028682	0.165400	0.080547	12.833165	0.084999	0.084368	8.612034	2.211197	2.211086	28.800000	7.552427	28.026749
2769917.900242	7.698691	0.090210	0.092019	14.026779	0.165124	0.080554	12.833809	0.084123	0.084365	8.612959	2.211197	2.211290	28.800000	7.552816	28.001645
2769947.899958	7.698730	0.090139	0.092021	14.026429	0.164840	0.080556	12.835165	0.084218	0.084360	8.614087	2.212618	2.211518	28.800000	7.553205	27.976622
2769977.900673	7.699135	0.098342	0.092044	14.026434	0.163703	0.080556	12.833959	0.084470	0.084365	8.616384	2.216092	2.211976	28.800000	7.553594	27.951570
2770007.900389	7.698716	0.093913	0.092023	14.031593	0.165250	0.080536	12.831604	0.083823	0.084374	8.618202	2.213645	2.212284	28.800000	7.553983	27.926538
2770037.900105	7.699189	0.089886	0.092051	14.034104	0.165645	0.080527	12.831936	0.084320	0.084373	8.619467	2.213961	2.212511	28.800000	7.554371	27.901595
2770067.900821	7.699230	0.085718	0.092053	14.034348	0.164484	0.080526	12.831941	0.084589	0.084373	8.620421	2.214987	2.212698	28.800000	7.554760	27.876592
2770097.900537	7.699240	0.087605	0.092055	14.037332	0.164879	0.080515	12.830440	0.084076	0.084379	8.622082	2.217514	2.212999	28.800000	7.555149	27.851632
2770127.900253	7.699383	0.096818	0.092066	14.042402	0.163734	0.080495	12.827960	0.083791	0.084389	8.623736	2.213882	2.213278	28.800000	7.555538	27.826688
2770157.899969	7.699242	0.095294	0.092060	14.045813	0.165006	0.080483	12.826270	0.084084	0.084395	8.624520	2.212381	2.213399	28.800000	7.555927	27.801820
2770187.900685	7.699174	0.092878	0.092055	14.043495	0.165850	0.080491	12.828102	0.083886	0.084388	8.625106	2.213961	2.213539	28.800000	7.556316	27.776915
2770217.900401	7.699057	0.085726	0.092047	14.040384	0.164082	0.080503	12.825927	0.084352	0.084397	8.626346	2.214987	2.213818	28.800000	7.556705	27.752032
2770247.900116	7.698806	0.088142	0.092031	14.038256	0.165029	0.080511	12.827442	0.084731	0.084391	8.627277	2.213013	2.214024	28.800000	7.557093	27.727248
2770277.900833	7.698926	0.094331	0.092035	14.032654	0.165424	0.080532	12.829953	0.083349	0.084381	8.626178	2.211355	2.213861	28.800000	7.557483	27.702403
2770307.900548	7.699311	0.088710	0.092052	14.023879	0.163758	0.080565	12.834954	0.084613	0.084361	8.625064	2.212697	2.213727	28.800000	7.557872	27.677591
2770337.900264	7.699278	0.084865	0.092050	14.022724	0.167240	0.080570	12.834572	0.083981	0.084362	8.624157	2.212381	2.213557	28.800000	7.558261	27.652811
2770367.899980	7.699636	0.090526	0.092070	14.022256	0.165037	0.080571	12.834028	0.084534	0.084364	8.623869	2.211434	2.213505	28.800000	7.558649	27.628094
2770397.900696	7.699546	0.085591	0.092065	14.022347	0.163845	0.080571	12.834643	0.084170	0.084362	8.623384	2.212934	2.213408	28.800000	7.559038	27.603352
2770427.900412	7.700127	0.095049	0.092098	14.021723	0.164682	0.080573	12.834082	0.084565	0.084364	8.622256	2.214040	2.213191	28.800000	7.559427	27.578634
2770457.900128	7.700071	0.092507	0.092095	14.021902	0.164863	0.080573	12.832638	0.083997	0.084370	8.621398	2.210250	2.213017	28.800000	7.559815	27.553999
2770487.900844	7.700400	0.089049	0.092113	14.021143	0.165377	0.080575	12.832681	0.084691	0.084370	8.620562	2.211513	2.212859	28.800000	7.560205	27.529296
2770517.900559	7.700990	0.089397	0.092145	14.018515	0.164871	0.080585	12.834897	0.082955	0.084361	8.619160	2.210644	2.212605	28.800000	7.560594	27.504646
2770547.900276	7.701160	0.089207	0.092155	14.018061	0.165432	0.080587	12.834413	0.085260	0.084363	8.617058	2.209223	2.212191	28.800000	7.560983	27.480005
2770577.899992	7.701542	0.091568	0.092178	14.021354	0.164350	0.080575	12.831742	0.084360	0.084374	8.615827	2.210644	2.211914	28.800000	7.561372	27.455438
2770607.900707	7.701884	0.097931	0.092198	14.022681	0.164840	0.080570	12.829914	0.084684	0.084381	8.614705	2.210487	2.211677	28.800000	7.561761	27.430849
2770637.900423	7.701883	0.098444	0.092199	14.023907	0.165156	0.080565	12.827995	0.085244	0.084388	8.613461	2.208039	2.211417	28.800000	7.562150	27.406289
2770667.900139	7.701935	0.084755	0.092202	14.024312	0.164358	0.080564	12.826110	0.084723	0.084396	8.610657	2.209223	2.210854	28.800000	7.562538	27.381811
2770697.900855	7.702393	0.093463	0.092224	14.016156	0.165116	0.080594	12.826693	0.084281	0.084394	8.608538	2.209223	2.210516	28.800000	7.562927	27.357267
2770727.900571	7.702566	0.092689	0.092233	14.014447	0.164729	0.080601	12.825884	0.084060	0.084397	8.607239	2.210408	2.210275	28.800000	7.563316	27.332770
2770757.900287	7.702891	0.085473	0.092249	14.009753	0.164950	0.080618	12.827755	0.084376	0.084389	8.606373	2.211434	2.210150	28.800000	7.563704	27.308373
2770787.900003	7.702201	0.089373	0.092208	14.006050	0.165984	0.080632	12.828727	0.083839	0.084385	8.605997	2.209144	2.210112	28.800000	7.564094	27.283889
2770817.900719	7.702392	0.085568	0.092221	14.010119	0.164619	0.080617	12.827424	0.085299	0.084391	8.605809	2.209144	2.210033	28.800000	7.564483	27.259454
2770847.900434	7.702810	0.086223	0.092245	14.012025	0.164848	0.080610	12.829182	0.084368	0.084384	8.606038	2.210092	2.210060	28.800000	7.564872	27.235039
2770877.900150	7.703115	0.093139	0.092266	14.017226	0.165290	0.080590	12.829038	0.084699	0.084384	8.606162	2.209065	2.210032	28.800000	7.565260	27.210717
2770907.900867	7.703155	0.093778	0.092269	14.019830	0.164998	0.080580	12.829019	0.084036	0.084384	8.605846	2.208828	2.209943	28.800000	7.565649	27.186332
2770937.900582	7.703235	0.087470	0.092272	14.016955	0.165242	0.080591	12.829537	0.084999	0.084382	8.606348	2.211118	2.210073	28.800000	7.566039	27.161984
2770967.900298	7.703222	0.085307	0.092271	14.015327	0.164524	0.080597	12.831279	0.083926	0.084375	8.608050	2.213645	2.210427	28.800000	7.566426	27.137733
2770997.900014	7.703381	0.086334	0.092279	14.013484	0.164287	0.080604	12.832618	0.083720	0.084370	8.609916	2.214987	2.210817	28.800000	7.566816	27.113394
2771027.900730	7.703495	0.091481	0.092287	14.015751	0.166032	0.080596	12.832505	0.083902	0.084370	8.612317	2.213724	2.211273	28.800000	7.567205	27.089119
2771057.900446	7.703597	0.093076	0.092289	14.009773	0.164263	0.080618	12.833020	0.083926	0.084368	8.613413	2.213882	2.211552	28.800000	7.567594	27.064870
2771087.900162	7.703850	0.094963	0.092300	14.004009	0.164982	0.080640	12.834418	0.084044	0.084363	8.613912	2.211434	2.211708	28.800000	7.567982	27.040708
2771117.900878	7.704212	0.089713	0.092323	14.006922	0.164571	0.080629	12.833656	0.084368	0.084366	8.614645	2.214040	2.211826	28.800000	7.568371	27.016479
2771147.900594	7.704518	0.085552	0.092339	14.005068	0.164413	0.080636	12.834590	0.084147	0.084362	8.615064	2.211355	2.211926	28.800000	7.568760	26.992291
2771177.900310	7.704570	0.094039	0.092337	13.994890	0.165077	0.080674	12.837427	0.084289	0.084351	8.615027	2.210092	2.212028	28.800000	7.569149	26.968117
2771207.900025	7.704188	0.097892	0.092319	14.002945	0.165756	0.080644	12.836790	0.084044	0.084353	8.616196	2.213803	2.212173	28.800000	7.569538	26.944022
2771237.900741	7.704088	0.088355	0.092316	14.008492	0.165448	0.080623	12.832769	0.084068	0.084369	8.617176	2.212460	2.212312	28.800000	7.569927	26.919888
2771267.900457	7.704156	0.095507	0.092320	14.006905	0.166198	0.080629	12.833364	0.084502	0.084367	8.617164	2.214197	2.212327	28.800000	7.570000	26.915348
2771297.900173	7.704141	0.098215	0.092318	14.006149	0.164571	0.080632	12.831282	0.084147	0.084375	8.616706	2.212145	2.212242	28.800000	7.570000	26.915348
2771327.899889	7.704159	0.087731	0.092319	14.004575	0.165156	0.080638	12.831618	0.083515	0.084374	8.614303	2.210092	2.211780	28.800000	7.570000	26.915348
2771357.900605	7.704251	0.089965	0.092320	13.997255	0.164887	0.080665	12.833762	0.084273	0.084366	8.613335	2.213803	2.211664	28.800000	7.570000	26.915348
2771387.900321	7.703673	0.085220	0.092286	13.995126	0.166521	0.080673	12.835385	0.084052	0.084359	8.612723	2.210092	2.211565	28.800000	7.570000	26.915348
2771417.900037	7.703478	0.091844	0.092273	13.992726	0.164855	0.080683	12.836734	0.085039	0.084354	8.612205	2.209934	2.211489	28.800000	7.570000	26.915348
2771447.900753	7.703158	0.093115	0.092256	13.993283	0.165669	0.080680	12.836912	0.084123	0.084353	8.613160	2.214987	2.211675	28.800000	7.570000	26.915348
2771477.900468	7.703241	0.094884	0.092265	14.002258	0.164405	0.080647	12.835615	0.084131	0.084358	8.615198	2.215066	2.211983	28.800000	7.570000	26.915348
2771507.900185	7.702984	0.089760	0.092257	14.014704	0.164958	0.080600	12.828478	0.084597	0.084386	8.617417	2.212460	2.212298	28.800000	7.570000	26.915348
2771537.899900	7.702764	0.084676	0.092248	14.021418	0.165361	0.080574	12.829149	0.084857	0.084384	8.618567	2.213724	2.212459	28.800000	7.570000	26.915348
2771567.900616	7.702586	0.098128	0.092240	14.025888	0.165274	0.080558	12.826331	0.085205	0.084395	8.619304	2.212539	2.212561	28.800000	7.570000	26.915348
2771597.900332	7.702574	0.092136	0.092243	14.031780	0.164074	0.080535	12.822727	0.084581	0.084409	8.619423	2.212460	2.212525	28.800000	7.570000	26.915348
2771627.900048	7.702623	0.086586	0.092243	14.027825	0.164516	0.080550	12.822485	0.085513	0.084410	8.620836	2.212697	2.212849	28.800000	7.570000	26.915348
2771657.900764	7.702792	0.086744	0.092248	14.018118	0.164508	0.080587	12.827208	0.084723	0.084391	8.620580	2.213961	2.212893	28.800000	7.570000	26.915348
2771687.900480	7.702687	0.084960	0.092238	14.010675	0.165448	0.080615	12.827696	0.085102	0.084390	8.620795	2.211513	2.213010	28.800000	7.570000	26.915348
2771717.900196	7.702949	0.086760	0.092251	14.007867	0.165677	0.080625	12.826315	0.084518	0.084395	8.620939	2.211434	2.213068	28.800000	7.570000	26.915348
2771747.899911	7.702819	0.088749	0.092244	14.007602	0.165069	0.080626	12.827390	0.084423	0.084391	8.620149	2.211513	2.212911	28.800000	7.570000	26.915348
2771777.900628	7.702854	0.090281	0.092244	14.004825	0.164603	0.080637	12.829155	0.084763	0.084384	8.618314	2.211434	2.212574	28.800000	7.570000	26.915348
2771807.900343	7.703011	0.090976	0.092253	14.004712	0.165629	0.080637	12.828751	0.084194	0.084385	8.616959	2.210092	2.212306	28.800000	7.570000	26.915348
2771837.900059	7.703111	0.085899	0.092258	14.002840	0.165266	0.080644	12.828714	0.084368	0.084386	8.615440	2.212145	2.212023	28.800000	7.570000	26.915348
2771867.900775	7.702841	0.088078	0.092243	14.003776	0.165637	0.080641	12.830074	0.084541	0.084380	8.615970	2.213487	2.212120	28.800000	7.570000	26.915348
2771897.900491	7.703278	0.089444	0.092268	14.004195	0.164595	0.080639	12.831888	0.084826	0.084373	8.618238	2.218698	2.212567	28.800000	7.570000	26.915348
2771927.900207	7.703447	0.093565	0.092278	14.004757	0.164532	0.080637	12.830196	0.084281	0.084380	8.619326	2.214592	2.212777	28.800000	7.570000	26.915348
2771957.899923	7.703558	0.097292	0.092288	14.011152	0.165045	0.080613	12.827633	0.084163	0.084390	8.620854	2.217277	2.213017	28.800000	7.570000	26.915348
2771987.900639	7.703448	0.086807	0.092283	14.014355	0.165156	0.080601	12.828742	0.083784	0.084385	8.622467	2.217356	2.213308	28.800000	7.570000	26.915348
2772017.900355	7.703225	0.086807	0.092270	14.012950	0.164382	0.080606	12.831036	0.083807	0.084376	8.624267	2.217198	2.213680	28.800000	7.570000	26.915348
2772047.900071	7.703693	0.098823	0.092296	14.012646	0.165187	0.080607	12.827456	0.083949	0.084391	8.626817	2.217119	2.214189	28.800000	7.570000	26.915348
2772077.900786	7.704229	0.091015	0.092323	14.006369	0.164887	0.080631	12.829225	0.084368	0.084383	8.630206	2.219724	2.214927	28.800000	7.570000	26.915348
2772107.900502	7.704291	0.084857	0.092325	14.001878	0.165377	0.080648	12.830313	0.083310	0.084379	8.633883	2.218382	2.215703	28.800000	7.570000	26.915348
2772137.900218	7.704649	0.093881	0.092344	14.000388	0.164824	0.080654	12.829408	0.084699	0.084383	8.637421	2.217356	2.216422	28.800000	7.570000	26.915348
2772167.899934	7.704638	0.090297	0.092344	14.001574	0.164848	0.080649	12.826203	0.085055	0.084395	8.638782	2.217435	2.216682	28.800000	7.570000	26.915348
2772197.900650	7.705103	0.084778	0.092370	13.999927	0.165369	0.080655	12.824811	0.084510	0.084401	8.639073	2.216250	2.216756	28.800000	7.570000	26.915348
2772227.900366	7.705071	0.096115	0.092370	14.003412	0.164666	0.080642	12.822005	0.083965	0.084412	8.638341	2.215935	2.216576	28.800000	7.570000	26.915348
2772257.900082	7.704886	0.091631	0.092358	14.001220	0.164942	0.080651	12.822642	0.082805	0.084410	8.639464	2.216013	2.216821	28.800000	7.570000	26.915348
2772287.900798	7.704858	0.094244	0.092357	14.001646	0.164611	0.080649	12.823319	0.084210	0.084407	8.638889	2.215224	2.216702	28.800000	7.570000	26.915348
2772317.900514	7.704736	0.092744	0.092347	13.997139	0.164855	0.080666	12.823796	0.084178	0.084405	8.640046	2.218698	2.216982	28.800000	7.570000	26.915348
2772347.900229	7.704485	0.090163	0.092334	13.999175	0.164761	0.080658	12.823716	0.083918	0.084405	8.640463	2.214829	2.217041	28.800000	7.570000	26.915348
2772377.899946	7.704693	0.085315	0.092342	13.992207	0.164492	0.080684	12.828312	0.084249	0.084387	8.638908	2.216250	2.216809	28.800000	7.570000	26.915348
2772407.900661	7.704602	0.089207	0.092340	13.997952	0.164477	0.080663	12.824536	0.085410	0.084402	8.637527	2.214513	2.216471	28.800000	7.570000	26.915348
2772437.900377	7.704593	0.089570	0.092337	13.993650	0.164011	0.080679	12.823374	0.083949	0.084407	8.636396	2.218382	2.216294	28.800000	7.570000	26.915348
2772467.900093	7.704507	0.094686	0.092334	13.997184	0.166490	0.080666	12.821907	0.083594	0.084413	8.637141	2.217198	2.216403	28.800000	7.570000	26.915348
2772497.900809	7.704707	0.096226	0.092343	13.992052	0.164855	0.080685	12.819904	0.084581	0.084420	8.636567	2.214592	2.216346	28.800000	7.570000	26.915348
2772527.900525	7.704800	0.091623	0.092351	13.997561	0.163963	0.080664	12.816523	0.084936	0.084434	8.636704	2.213645	2.216310	28.800000	7.570000	26.915348
2772557.900241	7.705015	0.094781	0.092362	13.994946	0.163261	0.080674	12.818363	0.083768	0.084427	8.635215	2.215856	2.216044	28.800000	7.570000	26.915348
2772587.899957	7.705162	0.094828	0.092371	13.996466	0.164958	0.080668	12.819798	0.084170	0.084421	8.635089	2.217277	2.216003	28.800000	7.570000	26.915348
2772617.900673	7.705358	0.095144	0.092382	13.995041	0.165156	0.080674	12.818378	0.084020	0.084427	8.634993	2.215935	2.215998	28.800000	7.570000	26.915348
2772647.900389	7.705566	0.098855	0.092396	14.000131	0.163545	0.080655	12.817914	0.083918	0.084428	8.634133	2.214671	2.215771	28.800000	7.570000	26.915348
2772677.900105	7.705900	0.086705	0.092415	14.000156	0.165361	0.080655	12.818496	0.084226	0.084426	8.633842	2.215066	2.215713	28.800000	7.570000	26.915348
2772707.900821	7.706004	0.089176	0.092424	14.005523	0.164855	0.080634	12.814949	0.083705	0.084440	8.633965	2.218461	2.215683	28.800000	7.570000	26.915348
2772737.900537	7.706012	0.090826	0.092427	14.011086	0.165653	0.080613	12.810017	0.084628	0.084460	8.635017	2.215935	2.215836	28.800000	7.570000	26.915348
2772767.900252	7.706260	0.086089	0.092443	14.014163	0.166127	0.080602	12.811172	0.084107	0.084455	8.635180	2.217435	2.215838	28.800000	7.570000	26.915348
2772797.899968	7.706446	0.091986	0.092454	14.015323	0.164500	0.080597	12.814299	0.084526	0.084443	8.635276	2.215935	2.215846	28.800000	7.570000	26.915348
2772827.900684	7.706420	0.089105	0.092451	14.011848	0.164784	0.080610	12.814106	0.084834	0.084443	8.637282	2.219645	2.216280	28.800000	7.570000	26.915348
2772857.900400	7.706065	0.087534	0.092427	14.005806	0.165590	0.080633	12.819854	0.084431	0.084421	8.639256	2.217277	2.216735	28.800000	7.570000	26.915348
2772887.900116	7.706065	0.098673	0.092425	14.000385	0.165148	0.080654	12.821289	0.085607	0.084415	8.640194	2.217119	2.216975	28.800000	7.570000	26.915348
2772917.900832	7.706265	0.087770	0.092436	13.999515	0.164998	0.080657	12.821321	0.084099	0.084415	8.640828	2.219645	2.217110	28.800000	7.570000	26.915348
2772947.900548	7.705894	0.097939	0.092413	13.995087	0.165495	0.080674	12.821500	0.083539	0.084414	8.641825	2.217356	2.217358	28.800000	7.570000	26.915348
2772977.900264	7.706096	0.093849	0.092423	13.993032	0.164903	0.080681	12.820648	0.083594	0.084418	8.641758	2.214671	2.217368	28.800000	7.570000	26.915348
2773007.899980	7.705757	0.095199	0.092403	13.991471	0.165298	0.080687	12.818769	0.083847	0.084425	8.641713	2.216329	2.217377	28.800000	7.570000	26.915348
2773037.900695	7.705964	0.088205	0.092414	13.989872	0.165684	0.080693	12.819118	0.084881	0.084424	8.640828	2.214750	2.217219	28.800000	7.570000	26.915348
2773067.900411	7.705871	0.085023	0.092408	13.988834	0.164500	0.080697	12.820402	0.084052	0.084419	8.639825	2.215935	2.217030	28.800000	7.570000	26.915348
2773097.900127	7.705837	0.097063	0.092404	13.986153	0.165913	0.080707	12.821386	0.085039	0.084415	8.639710	2.217277	2.217038	28.800000	7.570000	26.915348
2773127.900843	7.705424	0.095294	0.092381	13.985771	0.165369	0.080709	12.823972	0.084155	0.084404	8.638375	2.214592	2.216775	28.800000	7.570000	26.915348
2773157.900559	7.705554	0.095310	0.092390	13.989607	0.165432	0.080694	12.824430	0.084044	0.084403	8.636532	2.216013	2.216367	28.800000	7.570000	26.915348
2773187.900275	7.705319	0.094749	0.092376	13.987864	0.166482	0.080701	12.823544	0.084810	0.084406	8.635942	2.215935	2.216268	28.800000	7.570000	26.915348
2773217.899991	7.705513	0.084999	0.092385	13.984536	0.165156	0.080713	12.825743	0.084699	0.084397	8.634247	2.214671	2.215967	28.800000	7.570000	26.915348
2773247.900707	7.705522	0.088007	0.092386	13.986044	0.165542	0.080708	12.823232	0.084668	0.084407	8.632960	2.216013	2.215696	28.800000	7.570000	26.915348
2773277.900423	7.705483	0.091671	0.092387	13.991043	0.165266	0.080689	12.819349	0.084526	0.084423	8.633199	2.215935	2.215687	28.800000	7.570000	26.915348
2773307.900138	7.705015	0.095934	0.092359	13.989882	0.164808	0.080693	12.818550	0.084794	0.084426	8.633310	2.216961	2.215723	28.800000	7.570000	26.915348
2773337.900855	7.705055	0.091923	0.092363	13.991607	0.165100	0.080687	12.817740	0.083768	0.084429	8.634263	2.217040	2.215893	28.800000	7.570000	26.915348
2773367.900570	7.705070	0.091299	0.092365	13.994392	0.165029	0.080676	12.816418	0.084660	0.084434	8.635262	2.217040	2.216061	28.800000	7.570000	26.915348
2773397.900286	7.704927	0.093826	0.092362	14.004206	0.164800	0.080639	12.817821	0.084628	0.084429	8.636192	2.215698	2.216140	28.800000	7.570000	26.915348
2773427.900002	7.705173	0.094521	0.092377	14.006389	0.164327	0.080631	12.818147	0.084241	0.084427	8.636970	2.218224	2.216273	28.800000	7.570000	26.915348
2773457.900718	7.704802	0.085339	0.092359	14.012070	0.164524	0.080610	12.814316	0.084976	0.084443	8.639561	2.220830	2.216731	28.800000	7.570000	26.915348
2773487.900434	7.704772	0.089239	0.092359	14.016012	0.164800	0.080595	12.812185	0.084518	0.084451	8.640288	2.216250	2.216836	28.800000	7.570000	26.915348
2773517.900150	7.705092	0.098468	0.092377	14.014844	0.165029	0.080599	12.813253	0.084226	0.084447	8.641072	2.218303	2.217005	28.800000	7.570000	26.915348
2773547.900866	7.704979	0.095334	0.092366	14.006332	0.164445	0.080631	12.811441	0.084699	0.084454	8.642884	2.219251	2.217451	28.800000	7.570000	26.915348
2773577.900582	7.704974	0.087463	0.092364	14.003245	0.165179	0.080643	12.809768	0.084573	0.084461	8.644418	2.218856	2.217786	28.800000	7.570000	26.915348
2773607.900298	7.704665	0.099060	0.092344	13.999000	0.165077	0.080659	12.811202	0.084620	0.084455	8.646054	2.219172	2.218156	28.800000	7.570000	26.915348
2773637.900013	7.705323	0.084131	0.092380	13.994866	0.165471	0.080674	12.813977	0.084976	0.084444	8.646456	2.219409	2.218283	28.800000	7.570000	26.915348
2773667.900729	7.705604	0.094655	0.092392	13.987181	0.165242	0.080703	12.815715	0.084273	0.084437	8.646649	2.218224	2.218408	28.800000	7.570000	26.915348
2773697.900445	7.706259	0.085378	0.092428	13.985021	0.164848	0.080712	12.818208	0.086278	0.084427	8.647199	2.219488	2.218541	28.800000	7.570000	26.915348
2773727.900161	7.706454	0.095981	0.092436	13.979335	0.164816	0.080733	12.820643	0.083973	0.084418	8.648152	2.216882	2.218795	28.800000	7.570000	26.915348
2773757.900877	7.706507	0.087194	0.092436	13.974190	0.165179	0.080752	12.823990	0.085007	0.084404	8.647496	2.216961	2.218722	28.800000	7.570000	26.915348
2773787.900593	7.706899	0.097986	0.092457	13.970710	0.166387	0.080766	12.824555	0.083894	0.084402	8.647596	2.218382	2.218782	28.800000	7.570000	26.915348
2773817.900309	7.707212	0.085576	0.092475	13.972544	0.166032	0.080759	12.823840	0.085189	0.084405	8.647464	2.214434	2.218735	28.800000	7.570000	26.915348
2773847.900025	7.706987	0.085813	0.092464	13.974948	0.165021	0.080750	12.819728	0.084407	0.084421	8.646521	2.220909	2.218521	28.800000	7.570000	26.915348
2773877.900741	7.707239	0.086294	0.092480	13.978511	0.164982	0.080736	12.818810	0.085063	0.084425	8.646218	2.218461	2.218419	28.800000	7.570000	26.915348
2773907.900456	7.707190	0.086934	0.092477	13.977936	0.164942	0.080738	12.817625	0.083989	0.084430	8.645366	2.215935	2.218256	28.800000	7.570000	26.915348
2773937.900172	7.707650	0.098160	0.092505	13.981986	0.165827	0.080723	12.817045	0.084589	0.084432	8.644014	2.215777	2.217942	28.800000	7.570000	26.915348
2773967.899889	7.707889	0.099210	0.092527	13.997924	0.165661	0.080663	12.816289	0.084865	0.084435	8.644249	2.219488	2.217809	28.800000	7.570000	26.915348
2773997.900604	7.707853	0.098736	0.092530	14.005923	0.165321	0.080633	12.822564	0.084470	0.084410	8.644784	2.217119	2.217832	28.800000	7.570000	26.915348
2774027.900320	7.707853	0.095168	0.092536	14.017090	0.166269	0.080591	12.820456	0.084194	0.084418	8.644352	2.217040	2.217634	28.800000	7.570000	26.915348
2774057.900036	7.707749	0.098681	0.092537	14.030556	0.164548	0.080540	12.818975	0.084439	0.084424	8.644655	2.219488	2.217560	28.800000	7.570000	26.915348
2774087.900752	7.707782	0.099486	0.092541	14.034311	0.164524	0.080526	12.820418	0.084818	0.084418	8.644627	2.217119	2.217516	28.800000	7.570000	26.915348
2774117.900468	7.707933	0.098934	0.092546	14.028131	0.164350	0.080549	12.819476	0.083468	0.084422	8.644951	2.220672	2.217642	28.800000	7.570000	26.915348
2774147.900184	7.708019	0.088070	0.092549	14.024690	0.166063	0.080562	12.815974	0.084036	0.084436	8.646440	2.218856	2.217973	28.800000	7.570000	26.915348
2774177.899899	7.708493	0.086515	0.092571	14.016046	0.164934	0.080595	12.817877	0.086049	0.084429	8.645481	2.215856	2.217869	28.800000	7.570000	26.915348
2774207.900616	7.708463	0.089452	0.092563	14.003933	0.164998	0.080640	12.818646	0.084613	0.084425	8.645126	2.217119	2.217920	28.800000	7.570000	26.915348
2774237.900331	7.708718	0.094931	0.092575	13.999099	0.163782	0.080659	12.817389	0.084234	0.084430	8.645706	2.218461	2.218086	28.800000	7.570000	26.915348
2774267.900047	7.708789	0.093115	0.092578	13.995938	0.165124	0.080670	12.818717	0.084013	0.084425	8.645697	2.217119	2.218119	28.800000	7.570000	26.915348
2774297.900764	7.708528	0.088465	0.092562	13.993501	0.165882	0.080680	12.818557	0.082489	0.084426	8.645990	2.220672	2.218206	28.800000	7.570000	26.915348
2774327.900479	7.708913	0.095342	0.092581	13.989645	0.164974	0.080694	12.820593	0.083847	0.084418	8.646148	2.219409	2.218280	28.800000	7.570000	26.915348
2774357.900195	7.709051	0.093960	0.092592	13.994534	0.165219	0.080676	12.819999	0.085031	0.084420	8.647091	2.218224	2.218412	28.800000	7.570000	26.915348
2774387.899911	7.708874	0.089981	0.092583	13.996758	0.164058	0.080667	12.820780	0.084068	0.084417	8.647503	2.219488	2.218469	28.800000	7.570000	26.915348
2774417.900627	7.709037	0.094734	0.092591	13.994330	0.164200	0.080676	12.820499	0.083618	0.084418	8.647893	2.220672	2.218575	28.800000	7.570000	26.915348
2774447.900343	7.709005	0.090234	0.092588	13.992148	0.164690	0.080685	12.819267	0.085007	0.084423	8.647734	2.219488	2.218567	28.800000	7.570000	26.915348
2774477.900059	7.708874	0.092594	0.092578	13.987977	0.166261	0.080700	12.821268	0.085023	0.084415	8.648093	2.219409	2.218687	28.800000	7.570000	26.915348
2774507.900774	7.708788	0.090802	0.092572	13.984987	0.164177	0.080712	12.821333	0.082923	0.084415	8.648407	2.219567	2.218782	28.800000	7.570000	26.915348
2774537.900491	7.708717	0.098555	0.092566	13.980702	0.164295	0.080728	12.819416	0.084889	0.084422	8.649625	2.219409	2.219073	28.800000	7.570000	26.915348
2774567.900207	7.708682	0.097789	0.092565	13.983300	0.164895	0.080718	12.815632	0.084178	0.084437	8.650430	2.220751	2.219204	28.800000	7.570000	26.915348
2774597.899922	7.708477	0.099131	0.092555	13.985150	0.164903	0.080711	12.816189	0.083894	0.084435	8.650466	2.219330	2.219190	28.800000	7.570000	26.915348
2774627.900638	7.708579	0.098050	0.092559	13.982618	0.165519	0.080721	12.815608	0.084470	0.084438	8.649970	2.218224	2.219120	28.800000	7.570000	26.915348
2774657.900354	7.708356	0.097426	0.092547	13.984705	0.164540	0.080713	12.815454	0.084328	0.084438	8.650051	2.219488	2.219113	28.800000	7.570000	26.915348
2774687.900070	7.708189	0.092515	0.092539	13.987068	0.164958	0.080704	12.815062	0.084099	0.084440	8.650383	2.220593	2.219152	28.800000	7.570000	26.915348
2774717.900786	7.708063	0.096328	0.092528	13.979515	0.166103	0.080732	12.819855	0.084123	0.084421	8.650372	2.219330	2.219235	28.800000	7.570000	26.915348
2774747.900502	7.708400	0.092642	0.092544	13.974618	0.164595	0.080751	12.821182	0.084613	0.084415	8.649349	2.220751	2.219087	28.800000	7.570000	26.915348
2774777.900218	7.708498	0.085836	0.092553	13.980174	0.164792	0.080730	12.817745	0.084676	0.084429	8.650022	2.220909	2.219158	28.800000	7.570000	26.915348
2774807.899933	7.708916	0.094142	0.092574	13.975547	0.165061	0.080747	12.817966	0.084107	0.084428	8.650170	2.220830	2.219239	28.800000	7.570000	26.915348
2774837.900650	7.708510	0.097094	0.092549	13.971989	0.165929	0.080761	12.818550	0.084699	0.084426	8.650001	2.219645	2.219246	28.800000	7.570000	26.915348
2774867.900365	7.708594	0.084660	0.092555	13.974784	0.165329	0.080750	12.812688	0.083799	0.084449	8.650658	2.219567	2.219345	28.800000	7.570000	26.915348
2774897.900081	7.708232	0.098634	0.092536	13.977833	0.165258	0.080739	12.808500	0.084123	0.084466	8.650920	2.218382	2.219363	28.800000	7.570000	26.915348
2774927.900797	7.708113	0.089957	0.092528	13.975512	0.164855	0.080747	12.808627	0.084960	0.084465	8.650980	2.217277	2.219401	28.800000	7.570000	26.915348
2774957.900513	7.708436	0.085623	0.092548	13.977652	0.165195	0.080739	12.805747	0.084344	0.084477	8.651817	2.222172	2.219545	28.800000	7.570000	26.915348
2774987.900229	7.708342	0.098926	0.092540	13.973457	0.164500	0.080755	12.808105	0.084873	0.084467	8.652521	2.218540	2.219731	28.800000	7.570000	26.915348
2775017.899945	7.708215	0.086444	0.092535	13.976136	0.164713	0.080745	12.806309	0.084336	0.084474	8.652090	2.218540	2.219615	28.800000	7.570000	26.915348
2775047.900661	7.707932	0.099107	0.092517	13.973591	0.165306	0.080755	12.807679	0.084407	0.084469	8.651754	2.218461	2.219577	28.800000	7.570000	26.915348
2775077.900377	7.707297	0.094907	0.092481	13.974565	0.165203	0.080751	12.807574	0.084573	0.084469	8.651618	2.217356	2.219538	28.800000	7.570000	26.915348
2775107.900093	7.707184	0.087052	0.092473	13.971176	0.166119	0.080764	12.806526	0.084541	0.084474	8.650624	2.218698	2.219379	28.800000	7.570000	26.915348
2775137.900808	7.706654	0.098571	0.092445	13.974349	0.165471	0.080752	12.805753	0.084581	0.084477	8.650632	2.219251	2.219344	28.800000	7.570000	26.915348
2775167.900525	7.706903	0.098681	0.092458	13.972979	0.164216	0.080757	12.808074	0.084597	0.084467	8.650017	2.218540	2.219238	28.800000	7.570000	26.915348
2775197.900240	7.707045	0.098973	0.092467	13.974754	0.164666	0.080750	12.807345	0.084952	0.084470	8.650421	2.220988	2.219299	28.800000	7.570000	26.915348
2775227.899956	7.707324	0.085118	0.092483	13.974620	0.165550	0.080751	12.807532	0.084841	0.084470	8.651964	2.222251	2.219607	28.800000	7.570000	26.915348
2775257.900672	7.707968	0.088418	0.092519	13.973822	0.164713	0.080754	12.808974	0.084178	0.084464	8.652086	2.219724	2.219640	28.800000	7.570000	26.915348
2775287.900388	7.707735	0.093131	0.092506	13.973235	0.165400	0.080756	12.808802	0.083886	0.084465	8.651698	2.222172	2.219570	28.800000	7.570000	26.915348
2775317.900104	7.707652	0.097489	0.092500	13.971335	0.165574	0.080763	12.808861	0.084289	0.084464	8.652999	2.220988	2.219850	28.800000	7.570000	26.915348
2775347.900820	7.708015	0.093463	0.092519	13.967495	0.165495	0.080778	12.812120	0.084549	0.084451	8.654115	2.219724	2.220115	28.800000	7.570000	26.915348
2775377.900536	7.708246	0.099613	0.092532	13.968843	0.165298	0.080773	12.808669	0.084423	0.084465	8.655538	2.222251	2.220384	28.800000	7.570000	26.915348
2775407.900252	7.708800	0.099021	0.092563	13.967113	0.165337	0.080779	12.808685	0.084660	0.084465	8.657069	2.221146	2.220708	28.800000	7.570000	26.915348
2775437.899968	7.709048	0.099739	0.092578	13.968564	0.165306	0.080774	12.807357	0.084644	0.084470	8.657891	2.219645	2.220855	28.800000	7.570000	26.915348
2775467.900683	7.709086	0.084573	0.092581	13.969662	0.165511	0.080770	12.805084	0.084873	0.084479	8.658565	2.219567	2.220977	28.800000	7.570000	26.915348
2775497.900399	7.709040	0.091521	0.092580	13.972457	0.165353	0.080759	12.800041	0.084399	0.084499	8.659490	2.219803	2.221129	28.800000	7.570000	26.915348
2775527.900115	7.709140	0.094860	0.092583	13.967367	0.166000	0.080778	12.804098	0.084313	0.084483	8.658250	2.220988	2.220939	28.800000	7.570000	26.915348
2775557.900831	7.709461	0.086507	0.092601	13.967881	0.165369	0.080776	12.803727	0.084147	0.084485	8.658266	2.220830	2.220937	28.800000	7.570000	26.915348
2775587.900547	7.709225	0.098594	0.092589	13.970890	0.165479	0.080765	12.800603	0.084628	0.084497	8.658793	2.220988	2.221008	28.800000	7.570000	26.915348
2775617.900263	7.709336	0.087952	0.092595	13.969543	0.164682	0.080770	12.802460	0.084628	0.084490	8.657674	2.219803	2.220801	28.800000	7.570000	26.915348
2775647.899979	7.709175	0.086989	0.092583	13.964234	0.165992	0.080790	12.806498	0.084731	0.084474	8.656395	2.217277	2.220606	28.800000	7.570000	26.915348
2775677.900695	7.709295	0.086026	0.092589	13.962294	0.165258	0.080797	12.808767	0.084470	0.084465	8.654769	2.218777	2.220303	28.800000	7.570000	26.915348
2775707.900411	7.709030	0.094860	0.092573	13.961255	0.165803	0.080801	12.809042	0.083934	0.084464	8.653432	2.218461	2.220050	28.800000	7.570000	26.915348
2775737.900126	7.708945	0.085765	0.092565	13.955596	0.165487	0.080823	12.812085	0.084186	0.084452	8.652435	2.221146	2.219915	28.800000	7.570000	26.915348
2775767.900843	7.709159	0.099076	0.092576	13.952765	0.164784	0.080833	12.811991	0.085252	0.084452	8.651341	2.217435	2.219729	28.800000	7.570000	26.915348
2775797.900558	7.709550	0.099565	0.092599	13.953555	0.165077	0.080830	12.811660	0.083602	0.084453	8.650031	2.216092	2.219458	28.800000	7.570000	26.915348
2775827.900274	7.709995	0.095026	0.092624	13.953863	0.164879	0.080829	12.810636	0.083815	0.084457	8.649831	2.218619	2.219416	28.800000	7.570000	26.915348
2775857.899990	7.710128	0.089768	0.092631	13.953005	0.165100	0.080832	12.813461	0.084297	0.084446	8.648733	2.217119	2.219208	28.800000	7.570000	26.915348
2775887.900706	7.709785	0.090289	0.092612	13.952757	0.165463	0.080833	12.813392	0.085031	0.084446	8.646506	2.216092	2.218767	28.800000	7.570000	26.915348
2775917.900422	7.709855	0.098760	0.092615	13.951431	0.164777	0.080838	12.815729	0.085205	0.084437	8.645944	2.217435	2.218670	28.800000	7.570000	26.915348
2775947.900138	7.709559	0.086073	0.092598	13.951826	0.165487	0.080837	12.814501	0.084818	0.084442	8.645022	2.217751	2.218482	28.800000	7.570000	26.915348
2775977.900854	7.710223	0.099447	0.092637	13.954495	0.165519	0.080827	12.814408	0.084234	0.084442	8.645365	2.218619	2.218521	28.800000	7.570000	26.915348
2776007.900570	7.709946	0.087115	0.092620	13.951942	0.165542	0.080836	12.813392	0.084502	0.084446	8.644935	2.218777	2.218463	28.800000	7.570000	26.915348
2776037.900286	7.710179	0.085639	0.092634	13.952186	0.164579	0.080836	12.811908	0.084494	0.084452	8.644623	2.218461	2.218399	28.800000	7.570000	26.915348
2776067.900002	7.709785	0.094284	0.092614	13.957876	0.165716	0.080814	12.808906	0.084320	0.084464	8.644247	2.218698	2.218260	28.800000	7.570000	26.915348
2776097.900717	7.710152	0.098942	0.092635	13.957149	0.164998	0.080817	12.808941	0.084099	0.084464	8.644269	2.218777	2.218273	28.800000	7.570000	26.915348
2776127.900434	7.710044	0.096068	0.092630	13.958875	0.165590	0.080810	12.808845	0.083586	0.084464	8.644209	2.217435	2.218240	28.800000	7.570000	26.915348
2776157.900149	7.710006	0.097813	0.092629	13.961457	0.164303	0.080801	12.808181	0.085039	0.084467	8.643340	2.217356	2.218038	28.800000	7.570000	26.915348
2776187.900865	7.710290	0.086397	0.092645	13.962026	0.165029	0.080798	12.809950	0.084794	0.084460	8.643904	2.218698	2.218145	28.800000	7.570000	26.915348
2776217.900581	7.710457	0.090155	0.092651	13.955193	0.164263	0.080824	12.813131	0.084991	0.084447	8.644006	2.218777	2.218242	28.800000	7.570000	26.915348
2776247.900297	7.710284	0.096068	0.092645	13.961654	0.165677	0.080800	12.814340	0.084155	0.084443	8.644587	2.218935	2.218285	28.800000	7.570000	26.915348
2776277.900013	7.710637	0.093186	0.092666	13.964433	0.165337	0.080789	12.814427	0.083807	0.084442	8.645140	2.218619	2.218363	28.800000	7.570000	26.915348
2776307.900729	7.710378	0.089823	0.092652	13.965275	0.166071	0.080786	12.814983	0.085039	0.084440	8.644684	2.216171	2.218263	28.800000	7.570000	26.915348
2776337.900445	7.710501	0.087684	0.092660	13.966950	0.164698	0.080780	12.815432	0.084234	0.084438	8.644764	2.220593	2.218261	28.800000	7.570000	26.915348
2776367.900160	7.710585	0.095152	0.092668	13.972702	0.165290	0.080758	12.812666	0.084786	0.084449	8.645745	2.217356	2.218391	28.800000	7.570000	26.915348
2776397.900877	7.711279	0.094489	0.092703	13.965325	0.165463	0.080786	12.815697	0.083926	0.084437	8.644273	2.218935	2.218181	28.800000	7.570000	26.915348
2776427.900592	7.711418	0.088986	0.092712	13.966738	0.164784	0.080781	12.815234	0.083713	0.084439	8.644325	2.217751	2.218176	28.800000	7.570000	26.915348
2776457.900308	7.711025	0.093771	0.092690	13.966684	0.165282	0.080781	12.816910	0.084281	0.084432	8.645220	2.216408	2.218354	28.800000	7.570000	26.915348
2776487.900024	7.711716	0.096147	0.092732	13.972548	0.165140	0.080759	12.819210	0.084605	0.084423	8.644640	2.215303	2.218171	28.800000	7.570000	26.915348
2776517.900740	7.711128	0.087581	0.092699	13.973888	0.164540	0.080754	12.822635	0.084486	0.084410	8.642665	2.214119	2.217763	28.800000	7.570000	26.915348
2776547.900456	7.711232	0.091126	0.092706	13.975703	0.164350	0.080747	12.823063	0.084968	0.084408	8.640570	2.216961	2.217327	28.800000	7.570000	26.915348
2776577.900172	7.711760	0.097521	0.092734	13.970732	0.165329	0.080766	12.825454	0.084131	0.084398	8.638621	2.214355	2.216993	28.800000	7.570000	26.915348
2776607.899888	7.711469	0.096834	0.092716	13.968557	0.165195	0.080774	12.823541	0.084455	0.084406	8.636913	2.215461	2.216679	28.800000	7.570000	26.915348
2776637.900604	7.711659	0.091734	0.092724	13.963605	0.165242	0.080792	12.821878	0.084991	0.084413	8.635557	2.217751	2.216466	28.800000	7.570000	26.915348
2776667.900320	7.711475	0.086428	0.092712	13.961092	0.165440	0.080802	12.820954	0.084573	0.084416	8.633618	2.215145	2.216108	28.800000	7.570000	26.915348
2776697.900035	7.711135	0.089034	0.092693	13.960617	0.165874	0.080804	12.819875	0.084597	0.084421	8.632886	2.215461	2.215968	28.800000	7.570000	26.915348
2776727.900751	7.711191	0.095105	0.092696	13.961427	0.166008	0.080801	12.816862	0.084581	0.084433	8.631546	2.216408	2.215692	28.800000	7.570000	26.915348
2776757.900467	7.710904	0.096502	0.092679	13.959335	0.165369	0.080809	12.819394	0.084494	0.084423	8.630114	2.216724	2.215431	28.800000	7.570000	26.915348
2776787.900183	7.710536	0.087739	0.092659	13.961026	0.165574	0.080802	12.816418	0.084407	0.084434	8.631245	2.218777	2.215638	28.800000	7.570000	26.915348
2776817.899899	7.710290	0.090289	0.092644	13.959052	0.164437	0.080810	12.817443	0.084360	0.084430	8.632525	2.218619	2.215915	28.800000	7.570000	26.915348
2776847.900615	7.710125	0.099178	0.092632	13.955522	0.165227	0.080823	12.819105	0.084534	0.084424	8.634239	2.217593	2.216295	28.800000	7.570000	26.915348
2776877.900331	7.710202	0.087581	0.092637	13.956868	0.165084	0.080818	12.820134	0.084423	0.084420	8.634494	2.216171	2.216330	28.800000	7.570000	26.915348
2776907.900047	7.710238	0.089357	0.092641	13.960070	0.164287	0.080806	12.819248	0.083847	0.084423	8.636196	2.217672	2.216634	28.800000	7.570000	26.915348
2776937.900763	7.710236	0.087313	0.092640	13.958417	0.165542	0.080812	12.821909	0.084352	0.084413	8.637127	2.216329	2.216837	28.800000	7.570000	26.915348
2776967.900478	7.710296	0.097457	0.092642	13.956234	0.164705	0.080820	12.824247	0.083926	0.084403	8.637478	2.218935	2.216931	28.800000	7.570000	26.915348
2776997.900195	7.710296	0.091015	0.092642	13.956267	0.165290	0.080820	12.823141	0.084076	0.084408	8.638942	2.219014	2.217222	28.800000	7.570000	26.915348
2777027.899910	7.710546	0.088623	0.092656	13.954291	0.165495	0.080828	12.823644	0.084241	0.084406	8.640412	2.218856	2.217538	28.800000	7.570000	26.915348
2777057.900626	7.710796	0.099028	0.092669	13.952590	0.166048	0.080834	12.825250	0.084920	0.084399	8.641101	2.216171	2.217694	28.800000	7.570000	26.915348
2777087.900342	7.710602	0.097521	0.092658	13.952799	0.165337	0.080833	12.823921	0.084091	0.084405	8.641347	2.218619	2.217740	28.800000	7.570000	26.915348
2777117.900058	7.710619	0.096976	0.092660	13.954118	0.165779	0.080828	12.821576	0.083823	0.084414	8.641581	2.219961	2.217773	28.800000	7.570000	26.915348
2777147.900774	7.710732	0.089413	0.092666	13.954148	0.166087	0.080828	12.822123	0.084226	0.084412	8.642606	2.219409	2.217976	28.800000	7.570000	26.915348
2777177.900490	7.710364	0.087573	0.092645	13.953527	0.165898	0.080830	12.823280	0.084597	0.084407	8.642464	2.218461	2.217955	28.800000	7.570000	26.915348
2777207.900206	7.710466	0.093960	0.092650	13.952255	0.165408	0.080835	12.822972	0.083886	0.084408	8.643463	2.217277	2.218167	28.800000	7.570000	26.915348
2777237.899921	7.710207	0.095026	0.092635	13.950861	0.164919	0.080841	12.824079	0.084273	0.084404	8.644474	2.222646	2.218384	28.800000	7.570000	26.915348
2777267.900638	7.710018	0.099242	0.092624	13.951141	0.165337	0.080840	12.826814	0.084691	0.084393	8.645746	2.219803	2.218634	28.800000	7.570000	26.915348
2777297.900353	7.709645	0.090265	0.092605	13.955684	0.165408	0.080822	12.825751	0.084289	0.084397	8.646916	2.219803	2.218817	28.800000	7.570000	26.915348
2777327.900069	7.709195	0.097221	0.092580	13.956227	0.165163	0.080820	12.823958	0.084739	0.084404	8.648507	2.221067	2.219126	28.800000	7.570000	26.915348
2777357.900785	7.708828	0.097284	0.092559	13.955842	0.165179	0.080822	12.823930	0.084763	0.084405	8.649971	2.218777	2.219423	28.800000	7.570000	26.915348
2777387.900501	7.707674	0.096139	0.092493	13.956696	0.165645	0.080819	12.822799	0.083381	0.084409	8.650913	2.219882	2.219600	28.800000	7.570000	26.915348
2777417.900217	7.707188	0.086570	0.092465	13.954632	0.164761	0.080826	12.824780	0.084336	0.084401	8.651087	2.217672	2.219657	28.800000	7.570000	26.915348
2777447.899933	7.707137	0.084518	0.092458	13.948594	0.164477	0.080849	12.828508	0.084786	0.084386	8.650299	2.221619	2.219569	28.800000	7.570000	26.915348
2777477.900649	7.706624	0.095476	0.092429	13.949208	0.164263	0.080847	12.830069	0.085023	0.084380	8.652143	2.217751	2.219929	28.800000	7.570000	26.915348
2777507.900365	7.706340	0.086452	0.092412	13.945798	0.165227	0.080860	12.834156	0.084020	0.084364	8.651434	2.217514	2.219827	28.800000	7.570000	26.915348
2777537.900081	7.706096	0.095578	0.092398	13.946335	0.165211	0.080858	12.834744	0.084676	0.084362	8.649945	2.218224	2.219522	28.800000	7.570000	26.915348
2777567.900796	7.706051	0.095286	0.092401	13.957068	0.165566	0.080817	12.833328	0.084249	0.084367	8.648690	2.220119	2.219153	28.800000	7.570000	26.915348
2777597.900513	7.706117	0.099613	0.092407	13.961575	0.165211	0.080800	12.830524	0.084178	0.084378	8.649166	2.218935	2.219198	28.800000	7.570000	26.915348
2777627.900229	7.705698	0.086847	0.092382	13.958866	0.165100	0.080810	12.830149	0.084036	0.084380	8.647544	2.218777	2.218905	28.800000	7.570000	26.915348
2777657.899944	7.705692	0.097986	0.092383	13.962238	0.165984	0.080798	12.829960	0.084715	0.084381	8.646170	2.220277	2.218594	28.800000	7.570000	26.915348
2777687.900660	7.706041	0.088181	0.092401	13.958219	0.165211	0.080813	12.833773	0.084447	0.084365	8.645480	2.216566	2.218501	28.800000	7.570000	26.915348
2777717.900376	7.706301	0.086334	0.092409	13.945607	0.165298	0.080860	12.833556	0.084510	0.084366	8.643905	2.217751	2.218330	28.800000	7.570000	26.915348
2777747.900092	7.706264	0.085331	0.092407	13.945464	0.165195	0.080861	12.834805	0.084557	0.084361	8.643282	2.219014	2.218208	28.800000	7.570000	26.915348
2777777.900808	7.706196	0.094449	0.092403	13.944532	0.165353	0.080864	12.837554	0.084352	0.084350	8.642059	2.217751	2.217974	28.800000	7.570000	26.915348
2777807.900524	7.706141	0.084755	0.092400	13.945593	0.165503	0.080860	12.835963	0.084755	0.084357	8.642155	2.218935	2.217983	28.800000	7.570000	26.915348
2777837.900240	7.706311	0.090186	0.092411	13.947416	0.164816	0.080854	12.834176	0.084518	0.084364	8.642896	2.217672	2.218109	28.800000	7.570000	26.915348
2777867.899956	7.706469	0.088876	0.092419	13.945989	0.165779	0.080859	12.836587	0.084494	0.084354	8.643820	2.219093	2.218309	28.800000	7.570000	26.915348
2777897.900671	7.706204	0.096044	0.092405	13.947662	0.165211	0.080853	12.837503	0.084384	0.084351	8.642824	2.217751	2.218092	28.800000	7.570000	26.915348
2777927.900387	7.706132	0.093092	0.092403	13.952825	0.165274	0.080833	12.837151	0.084281	0.084352	8.643248	2.216171	2.218117	28.800000	7.570000	26.915348
2777957.900104	7.705530	0.098571	0.092370	13.954285	0.163955	0.080828	12.836769	0.084210	0.084354	8.643195	2.217672	2.218091	28.800000	7.570000	26.915348
2777987.900819	7.705900	0.096676	0.092391	13.953675	0.165756	0.080830	12.838893	0.084131	0.084345	8.643228	2.218935	2.218104	28.800000	7.570000	26.915348
2778017.900535	7.706120	0.098507	0.092404	13.954979	0.166150	0.080825	12.840366	0.083681	0.084339	8.642822	2.214040	2.218009	28.800000	7.570000	26.915348
2778047.900251	7.706401	0.087470	0.092422	13.959455	0.164650	0.080808	12.839073	0.084328	0.084344	8.642103	2.217829	2.217816	28.800000	7.570000	26.915348
2778077.899967	7.699710	0.000000	0.092252	14.373523	0.000000	0.079261	13.256419	0.000000	0.082708	8.551111	0.000000	2.195497	28.800000	7.570000	26.915348
2778107.900683	7.695502	0.095018	0.092166	14.650465	0.165432	0.078245	13.532611	0.084431	0.081645	8.506730	2.246964	2.183882	28.800000	7.570000	26.915348
2778137.900399	7.694992	0.089034	0.092138	14.653101	0.165084	0.078235	13.532936	0.084676	0.081644	8.503843	2.160507	2.183262	28.800000	7.570000	26.915348
2778167.900115	7.693804	0.083799	0.092070	14.653842	0.165558	0.078233	13.527996	0.084478	0.081662	8.440986	2.036230	2.170703	28.800000	7.570000	26.915348
2778197.900831	7.692390	0.093636	0.091990	14.654101	0.166111	0.078232	13.514859	0.084715	0.081713	8.346747	2.035993	2.152006	28.800000	7.570000	26.915348
2778227.900547	7.690266	0.091718	0.091866	14.649037	0.165503	0.078250	13.496093	0.085307	0.081785	8.262392	2.048705	2.135268	28.800000	7.570000	26.915348
2778257.900262	7.693548	0.087857	0.091685	13.950336	0.166379	0.080843	12.781141	0.085102	0.084574	8.138664	2.028966	2.117661	28.800000	7.570000	26.915348
2778287.899978	7.688138	0.096518	0.091377	13.950709	0.166813	0.080841	12.742210	0.085520	0.084729	8.028145	1.948589	2.095724	28.800000	7.570000	26.915348
2778317.900694	7.681999	0.078644	0.091029	13.952989	0.165882	0.080833	12.702917	0.085915	0.084886	7.867964	1.862526	2.063701	28.800000	7.570000	26.915348
2778347.900410	7.674513	0.080373	0.090603	13.954774	0.166206	0.080826	12.658655	0.085347	0.085063	7.687049	1.827549	2.027793	28.800000	7.570000	26.915348
2778377.900126	7.667093	0.094568	0.090181	13.954775	0.166695	0.080826	12.604118	0.085891	0.085282	7.480629	1.753883	1.986557	28.800000	7.570000	26.915348
2778407.900842	7.658824	0.091331	0.089710	13.955991	0.167753	0.080821	12.540382	0.085986	0.085538	7.408055	1.674058	1.972254	28.800000	7.570000	26.915348
2778437.900558	7.655984	0.080673	0.089547	13.953790	0.167548	0.080830	12.471934	0.087147	0.085814	7.102912	1.569046	1.911345	28.800000	7.570000	26.915348
2778467.900274	7.647789	0.081502	0.089083	13.958568	0.167327	0.080811	12.402904	0.086570	0.086094	6.817300	1.497433	1.854470	28.800000	7.570000	26.915348
2778497.899990	7.640677	0.089326	0.088675	13.952360	0.167137	0.080835	12.347425	0.086405	0.086319	6.541706	1.450296	1.799873	28.800000	7.570000	26.915348
2778527.900705	7.634550	0.086128	0.088326	13.952666	0.167121	0.080834	12.307094	0.086199	0.086484	6.230498	1.395026	1.737715	28.800000	7.570000	26.915348
2778557.900421	7.629267	0.082544	0.088023	13.949967	0.166995	0.080844	12.284048	0.086642	0.086578	5.898014	1.343152	1.671562	28.800000	7.570000	26.915348
2778587.900137	7.623445	0.085299	0.087693	13.953250	0.167295	0.080832	12.276733	0.087020	0.086607	5.560242	1.305806	1.604312	28.800000	7.570000	26.915348
2778617.900853	7.621144	0.078234	0.087564	13.956521	0.166600	0.080819	12.272976	0.086949	0.086623	5.252269	1.246905	1.543202	28.800000	7.570000	26.915348
